# 2theta(deg)    Intensity    Error
0.9797269 121.8035889 4.0297847
0.9970531 120.4956665 1.9861045
1.0143793 118.4598770 1.5471948
1.0317055 114.4495544 1.2982401
1.0490317 114.6841507 1.0523219
1.0663578 116.0947189 0.9276268
1.0836840 115.0956039 0.8233845
1.1010102 113.6213608 0.7654208
1.1183364 111.8711243 0.7276259
1.1356626 110.4742355 0.6847315
1.1529888 109.3109283 0.6574847
1.1703150 108.7702789 0.6482773
1.1876411 108.0604553 0.6230527
1.2049673 106.9414368 0.6033037
1.2222935 106.0008774 0.5933279
1.2396197 105.8067780 0.5747950
1.2569459 105.5239105 0.5575013
1.2742721 105.1423798 0.5492557
1.2915983 104.2296143 0.5268010
1.3089245 103.3881912 0.5080717
1.3262506 102.2691193 0.4998123
1.3435768 101.8152161 0.4875144
1.3609030 101.5034943 0.4829311
1.3782292 100.1995468 0.4831538
1.3955554 99.2639771 0.4713280
1.4128816 98.6955872 0.4663824
1.4302078 98.3540573 0.4696548
1.4475340 98.1432266 0.4608513
1.4648601 97.4302750 0.4547536
1.4821863 96.4763489 0.4565160
1.4995125 95.5620422 0.4467432
1.5168387 94.7924881 0.4407775
1.5341649 94.3958588 0.4440687
1.5514911 94.0637894 0.4356711
1.5688173 93.7188950 0.4302607
1.5861434 93.5551834 0.4332323
1.6034696 93.2428741 0.4255110
1.6207958 92.7422562 0.4188762
1.6381220 92.6197968 0.4219005
1.6554482 92.3459320 0.4144526
1.6727744 92.3819275 0.4096373
1.6901006 92.2287521 0.4128309
1.7074268 91.8600082 0.4068453
1.7247529 91.5208282 0.4014335
1.7420791 91.0689392 0.4032834
1.7594053 90.3598480 0.3965942
1.7767315 89.8377151 0.3903498
1.7940577 89.6824112 0.3935597
1.8113839 89.8527145 0.3896302
1.8287101 89.7483749 0.3847031
1.8460362 89.3066254 0.3870057
1.8633624 89.1635208 0.3830580
1.8806886 88.8146667 0.3770428
1.8980148 88.4407883 0.3799070
1.9153410 88.2813568 0.3752838
1.9326672 88.3856049 0.3708353
1.9499934 88.2638397 0.3734148
1.9673196 87.7664337 0.3679989
1.9846457 87.2580795 0.3618423
2.0019719 86.8167801 0.3639961
2.0192981 86.5438232 0.3600269
2.0366243 86.2512436 0.3544123
2.0539505 85.9553223 0.3566423
2.0712767 86.0851364 0.3541190
2.0886029 86.0794754 0.3489391
2.1059291 85.6969833 0.3512622
2.1232552 85.3534393 0.3482631
2.1405814 85.3258896 0.3438465
2.1579076 85.2727737 0.3467291
2.1752338 85.2695084 0.3445113
2.1925600 85.0923157 0.3387247
2.2098862 85.0120697 0.3416972
2.2272124 84.6423416 0.3390068
2.2445385 84.4340668 0.3329646
2.2618647 84.4624481 0.3355993
2.2791909 84.3835449 0.3336838
2.2965171 84.4336014 0.3286764
2.3138433 84.4110641 0.3307074
2.3311695 84.4711685 0.3298674
2.3484957 84.4181976 0.3246051
2.3658219 84.5054779 0.3267347
2.3831480 84.2372589 0.3251592
2.4004742 83.7693405 0.3190552
2.4178004 83.2229385 0.3197744
2.4351266 82.7934875 0.3189973
2.4524528 82.9304733 0.3141979
2.4697790 83.3820114 0.3172058
2.4871052 83.6744080 0.3174634
2.5044314 84.0095978 0.3134590
2.5217575 83.7772522 0.3144051
2.5390837 83.1385269 0.3129164
2.5564099 82.5808792 0.3068836
2.5737361 82.2419281 0.3077652
2.5910623 82.1598053 0.3077631
2.6083885 82.3898926 0.3035564
2.6257147 82.5812073 0.3047313
2.6430408 82.6340561 0.3050276
2.6603670 82.7136536 0.3001704
2.6776932 82.9641876 0.3017146
2.6950194 82.9212189 0.3017127
2.7123456 82.5347290 0.2964343
2.7296718 82.2588043 0.2969099
2.7469980 82.0929871 0.2970296
2.7643242 82.0623093 0.2926511
2.7816503 81.9218597 0.2930687
2.7989765 81.9402618 0.2938641
2.8163027 81.9307251 0.2900108
2.8336289 81.9063568 0.2899722
2.8509551 82.1201324 0.2912108
2.8682813 82.1446686 0.2873677
2.8856075 81.8327713 0.2870770
2.9029336 81.3828125 0.2872477
2.9202598 81.4500427 0.2833945
2.9375860 81.6632767 0.2837225
2.9549122 81.7085953 0.2846138
2.9722384 81.8276138 0.2808566
2.9895646 81.9167252 0.2807511
3.0068908 81.5173035 0.2810673
3.0242170 81.3424606 0.2774411
3.0415431 81.3065338 0.2769586
3.0588693 81.1643143 0.2779140
3.0761955 81.1005249 0.2742324
3.0935217 81.0583344 0.2738869
3.1108479 80.7899323 0.2745211
3.1281741 80.8268814 0.2715804
3.1455003 81.0059891 0.2713055
3.1628265 81.0547104 0.2729972
3.1801526 81.0274734 0.2700482
3.1974788 80.9297485 0.2689380
3.2148050 81.0200424 0.2706485
3.2321312 81.0931091 0.2678280
3.2494574 81.0140610 0.2666659
3.2667836 80.9050140 0.2678919
3.2841098 80.7359924 0.2644617
3.3014359 80.5953064 0.2632118
3.3187621 80.6851807 0.2650422
3.3360883 80.6298370 0.2621858
3.3534145 80.5033264 0.2606602
3.3707407 80.5031052 0.2620890
3.3880669 80.6780243 0.2598552
3.4053931 80.8347855 0.2587358
3.4227193 80.8970413 0.2603291
3.4400454 81.1346436 0.2587864
3.4573716 81.4680557 0.2579150
3.4746978 81.5801239 0.2600473
3.4920240 81.3955154 0.2576491
3.5093502 81.0117035 0.2551223
3.5266764 80.8360596 0.2564920
3.5440026 80.7872620 0.2546489
3.5613288 80.7321472 0.2527341
3.5786549 80.7313004 0.2544318
3.5959811 80.8541718 0.2530032
3.6133073 80.9640427 0.2511335
3.6306335 81.1686172 0.2530578
3.6479597 81.5001526 0.2520579
3.6652859 81.4472275 0.2494320
3.6826121 81.5992966 0.2515038
3.6999382 81.8259048 0.2504924
3.7172644 81.9650116 0.2482352
3.7345906 82.1625900 0.2501342
3.7519168 82.3146133 0.2496346
3.7692430 82.3611755 0.2472999
3.7865692 82.2519073 0.2486570
3.8038954 82.0853577 0.2476396
3.8212216 82.0074158 0.2449544
3.8385477 81.8584213 0.2461599
3.8558739 81.8536148 0.2456375
3.8732001 82.1445770 0.2435494
3.8905263 82.3749161 0.2453429
3.9078525 82.3366852 0.2450385
3.9251787 82.1750183 0.2419179
3.9425049 82.2120972 0.2430311
3.9598310 82.3130951 0.2427676
3.9771572 82.4283676 0.2401217
3.9944834 82.7013626 0.2416698
4.0118096 83.0167236 0.2420035
4.0291358 82.9768143 0.2394293
4.0464620 82.7800980 0.2399170
4.0637882 82.7169800 0.2400458
4.0811144 82.6631470 0.2370644
4.0984405 82.7717361 0.2379911
4.1157667 82.7917175 0.2384271
4.1330929 82.7257767 0.2358780
4.1504191 82.9158707 0.2367453
4.1677453 83.3180695 0.2380151
4.1850715 83.5251846 0.2357315
4.2023977 83.4230652 0.2359353
4.2197239 83.4142761 0.2366086
4.2370500 83.4887543 0.2342414
4.2543762 83.4086533 0.2341892
4.2717024 83.4221344 0.2351294
4.2890286 83.6874161 0.2331281
4.3063548 83.9533615 0.2334606
4.3236810 83.8234940 0.2340714
4.3410072 83.7458496 0.2315895
4.3583333 84.0332718 0.2316398
4.3756595 84.3515167 0.2330440
4.3929857 84.4546585 0.2308556
4.4103119 84.5184708 0.2304454
4.4276381 84.6067047 0.2318929
4.4449643 84.6085358 0.2299576
4.4622905 84.4956207 0.2291815
4.4796167 84.7254333 0.2307902
4.4969428 85.1487427 0.2293936
4.5142690 85.2797623 0.2287841
4.5315952 84.8907852 0.2295227
4.5489214 84.7570267 0.2277131
4.5662476 84.9878311 0.2270710
4.5835738 85.1424332 0.2288749
4.6009000 85.0647049 0.2272917
4.6182262 85.2393646 0.2261393
4.6355523 85.5880203 0.2280785
4.6528785 85.6813126 0.2267270
4.6702047 85.7137604 0.2251815
4.6875309 85.8714142 0.2269838
4.7048571 86.1251221 0.2261296
4.7221833 86.3390045 0.2247464
4.7395095 86.2125854 0.2258564
4.7568356 86.3102570 0.2252094
4.7741618 86.4298096 0.2231828
4.7914880 86.4545670 0.2247052
4.8088142 86.4250793 0.2241038
4.8261404 86.4601212 0.2222276
4.8434666 86.6441116 0.2238365
4.8607928 86.7145691 0.2235970
4.8781190 86.8696899 0.2216589
4.8954451 87.1120148 0.2229290
4.9127713 87.3676605 0.2233509
4.9300975 87.5466309 0.2211931
4.9474237 87.7560196 0.2224748
4.9647499 87.9153900 0.2227799
4.9820761 88.2725220 0.2212640
4.9994023 88.4196930 0.2220794
5.0167284 88.4015961 0.2223847
5.0340546 88.2376328 0.2198152
5.0513808 88.1465683 0.2202043
5.0687070 88.0972977 0.2203865
5.0860332 88.0973740 0.2183684
5.1033594 88.1759109 0.2186374
5.1206856 88.5860977 0.2198632
5.1380118 88.7320023 0.2181122
5.1553379 88.8454208 0.2182642
5.1726641 89.0387344 0.2191413
5.1899903 89.2839661 0.2175040
5.2073165 89.5843201 0.2178574
5.2246427 89.6538086 0.2189143
5.2419689 89.6465607 0.2172362
5.2592951 89.8057480 0.2172357
5.2766213 89.8144684 0.2180716
5.2939474 89.8511200 0.2167087
5.3112736 89.8358307 0.2159180
5.3285998 90.1264572 0.2174596
5.3459260 90.5340958 0.2164948
5.3632522 90.8739548 0.2163769
5.3805784 91.1072083 0.2177256
5.3979046 91.2417297 0.2164873
5.4152307 91.2617340 0.2154356
5.4325569 91.3385773 0.2166178
5.4498831 91.4844055 0.2155151
5.4672093 91.8191223 0.2148430
5.4845355 92.3993225 0.2167001
5.5018617 92.9767609 0.2166184
5.5191879 93.0283661 0.2153545
5.5365141 92.8447113 0.2163699
5.5538402 92.6204834 0.2152492
5.5711664 92.6771622 0.2137277
5.5884926 92.8956833 0.2150380
5.6058188 93.2349091 0.2152663
5.6231450 93.6982422 0.2140769
5.6404712 93.8022690 0.2152873
5.6577974 93.7541046 0.2150198
5.6751236 93.8452759 0.2134144
5.6924497 93.9719772 0.2143981
5.7097759 94.1268234 0.2145080
5.7271021 94.3527069 0.2131023
5.7444283 94.3097382 0.2136428
5.7617545 94.4290771 0.2139996
5.7790807 94.7421112 0.2125376
5.7964069 95.1472092 0.2133971
5.8137330 95.4537354 0.2139540
5.8310592 95.8347244 0.2125830
5.8483854 96.1327744 0.2131647
5.8657116 96.1392593 0.2137753
5.8830378 96.2913818 0.2122953
5.9003640 96.5674896 0.2125411
5.9176902 96.9443741 0.2136849
5.9350164 97.1201782 0.2122721
5.9523425 97.2756500 0.2121643
5.9696687 97.6257935 0.2134603
5.9869949 97.9584045 0.2123993
6.0043211 98.3411102 0.2125324
6.0216473 98.5866089 0.2138040
6.0389735 98.8547897 0.2127578
6.0562997 99.2057266 0.2124351
6.0736258 99.4992981 0.2136983
6.0909520 99.7232513 0.2128150
6.1082782 99.9582443 0.2124706
6.1256044 100.2219391 0.2137457
6.1429306 100.6479874 0.2134189
6.1602568 100.8530960 0.2124135
6.1775830 101.0940018 0.2137980
6.1949092 101.2014236 0.2130538
6.2122353 101.2544174 0.2116829
6.2295615 101.3725815 0.2127311
6.2468877 101.5814896 0.2127202
6.2642139 101.8826447 0.2114991
6.2815401 102.2268066 0.2128090
6.2988663 102.5321884 0.2129461
6.3161925 102.8315582 0.2115626
6.3335187 103.2747955 0.2127341
6.3508448 103.8013916 0.2134344
6.3681710 104.1433334 0.2121502
6.3854972 104.4423370 0.2130449
6.4028234 104.7744064 0.2136486
6.4201496 105.4036560 0.2126818
6.4374758 106.9399185 0.2145803
6.4548020 108.9447632 0.2170073
6.4721281 110.1964722 0.2166832
6.4894543 110.1619949 0.2168177
6.5067805 109.1754761 0.2164452
6.5241067 108.1686935 0.2138944
6.5414329 107.6208801 0.2133392
6.5587591 107.4787750 0.2138605
6.5760853 107.5614243 0.2125205
6.5934115 107.7114029 0.2122657
6.6107376 107.9908218 0.2134744
6.6280638 108.0886459 0.2123299
6.6453900 108.1829987 0.2118257
6.6627162 108.4624252 0.2130711
6.6800424 109.0120087 0.2126184
6.6973686 109.5442276 0.2121733
6.7146948 109.9149017 0.2136599
6.7320210 110.0693893 0.2130270
6.7493471 110.3213882 0.2122207
6.7666733 110.6105499 0.2135012
6.7839995 110.9600372 0.2134625
6.8013257 111.3992462 0.2124014
6.8186519 111.8538437 0.2137258
6.8359781 112.2777863 0.2140045
6.8533043 112.3533325 0.2125548
6.8706304 112.6770554 0.2136896
6.8879566 113.1675415 0.2141833
6.9052828 113.7738953 0.2132255
6.9226090 114.0324326 0.2139744
6.9399352 114.2200317 0.2143286
6.9572614 114.5351334 0.2131488
6.9745876 115.0934525 0.2140085
6.9919138 115.6193085 0.2149423
7.0092399 115.9560242 0.2138286
7.0265661 116.1968002 0.2139612
7.0438923 116.4573593 0.2147605
7.0612185 116.8593826 0.2137153
7.0785447 117.0578461 0.2137119
7.0958709 117.2269516 0.2147021
7.1131971 117.3992233 0.2136347
7.1305232 117.9612350 0.2137257
7.1478494 118.6474228 0.2152074
7.1651756 119.0836716 0.2146069
7.1825018 119.2663651 0.2139787
7.1998280 119.4550934 0.2151524
7.2171542 119.6631241 0.2146709
7.2344804 120.0130692 0.2139028
7.2518066 120.5008850 0.2154698
7.2691327 121.0071793 0.2154043
7.2864589 121.4556427 0.2144918
7.3037851 121.8260880 0.2156664
7.3211113 122.1214905 0.2156870
7.3384375 122.4135666 0.2145851
7.3557637 122.6865311 0.2155340
7.3730899 122.9248123 0.2157812
7.3904161 123.3692398 0.2147412
7.4077422 123.7868652 0.2154870
7.4250684 124.1778641 0.2161940
7.4423946 124.3251343 0.2148308
7.4597208 124.3995132 0.2150669
7.4770470 124.8278503 0.2159540
7.4943732 125.4256210 0.2150201
7.5116994 125.9860992 0.2155100
7.5290255 126.3154831 0.2163200
7.5463517 126.6116638 0.2154173
7.5636779 127.1595917 0.2155752
7.5810041 127.7643814 0.2169033
7.5983303 128.2861633 0.2164177
7.6156565 128.4504700 0.2158283
7.6329827 128.7388611 0.2169541
7.6503089 129.1760559 0.2166393
7.6676350 129.6417542 0.2160724
7.6849612 129.8899841 0.2172164
7.7022874 129.9820862 0.2168895
7.7196136 130.1003723 0.2157924
7.7369398 130.4440002 0.2167870
7.7542660 130.7491913 0.2169516
7.7715922 130.9543915 0.2157443
7.7889184 131.3281555 0.2167149
7.8062445 131.7367096 0.2172354
7.8235707 132.0679779 0.2160574
7.8408969 132.3528900 0.2166847
7.8582231 132.6982880 0.2173194
7.8755493 133.1440277 0.2161994
7.8928755 133.7334442 0.2169276
7.9102017 134.1509857 0.2176975
7.9275278 134.5371704 0.2167217
7.9448540 134.8305054 0.2168204
7.9621802 135.2868958 0.2178565
7.9795064 135.8521729 0.2172357
7.9968326 136.2618866 0.2170742
8.0141588 136.4360657 0.2181461
8.0314850 136.5527954 0.2173744
8.0488112 136.9385376 0.2170140
8.0661373 137.2893066 0.2180969
8.0834635 137.4484406 0.2177149
8.1007897 137.6890411 0.2168080
8.1181159 137.9606934 0.2178536
8.1354421 138.4494476 0.2180813
8.1527683 138.8293915 0.2170769
8.1700945 138.9720612 0.2177830
8.1874206 139.0552673 0.2178652
8.2047468 139.1658936 0.2166047
8.2220730 139.4861298 0.2172038
8.2393992 140.0505676 0.2180227
8.2567254 140.4763031 0.2170345
8.2740516 140.6795044 0.2173180
8.2913778 140.7654724 0.2178777
8.3087040 140.8469696 0.2167802
8.3260301 141.2240601 0.2169306
8.3433563 141.6547241 0.2179738
8.3606825 142.1588135 0.2173711
8.3780087 142.5354919 0.2171547
8.3953349 142.7906342 0.2181456
8.4126611 143.0301361 0.2176608
8.4299873 143.2279663 0.2169096
8.4473135 143.5930176 0.2180834
8.4646396 144.1624298 0.2181037
8.4819658 144.3571472 0.2170432
8.4992920 144.5676575 0.2180472
8.5166182 144.9671936 0.2182491
8.5339444 145.2389069 0.2171104
8.5512706 145.3927002 0.2177124
8.5685968 145.7607727 0.2181830
8.5859229 146.3787842 0.2173347
8.6032491 146.9232483 0.2181001
8.6205753 147.0083618 0.2185504
8.6379015 147.0422821 0.2173371
8.6552277 147.1492157 0.2173051
8.6725539 147.3853455 0.2181599
8.6898801 147.8730927 0.2175117
8.7072063 148.1489258 0.2173005
8.7245324 148.4649200 0.2183306
8.7418586 148.8723297 0.2179352
8.7591848 149.0894470 0.2173172
8.7765110 149.0518799 0.2180710
8.7938372 149.2425079 0.2177391
8.8111634 149.7573700 0.2172301
8.8284896 150.2118988 0.2182429
8.8458158 150.4344940 0.2182171
8.8631419 150.4048309 0.2170142
8.8804681 150.4111633 0.2174043
8.8977943 150.6976013 0.2178567
8.9151205 151.0733337 0.2168809
8.9324467 151.3903046 0.2173336
8.9497729 151.6612549 0.2179370
8.9670991 152.0746307 0.2170922
8.9844252 152.5852966 0.2173418
9.0017514 152.7406158 0.2181413
9.0190776 152.6497040 0.2171023
9.0364038 152.6716614 0.2166714
9.0537300 153.1292877 0.2177902
9.0710562 153.7683411 0.2176681
9.0883824 154.2167664 0.2171369
9.1057086 154.7036438 0.2182109
9.1230347 155.4699402 0.2184787
9.1403609 156.4452972 0.2180887
9.1576871 157.3292999 0.2193603
9.1750133 157.6745300 0.2195237
9.1923395 157.3914032 0.2181435
9.2096657 157.0112915 0.2182484
9.2269919 156.7840118 0.2183444
9.2443180 156.7237549 0.2171157
9.2616442 156.7824249 0.2171677
9.2789704 157.1450043 0.2180140
9.2962966 157.5006256 0.2172287
9.3136228 157.5767822 0.2169540
9.3309490 157.6651459 0.2178094
9.3482752 158.0283203 0.2172990
9.3656014 158.6537781 0.2170318
9.3829275 159.4200287 0.2183994
9.4002537 159.6354218 0.2180468
9.4175799 159.5475616 0.2171041
9.4349061 159.4808655 0.2176353
9.4522323 159.6187286 0.2176510
9.4695585 159.6891632 0.2165624
9.4868847 159.8773193 0.2171216
9.5042109 160.1287231 0.2174897
9.5215370 160.2396393 0.2163663
9.5388632 160.5439148 0.2167998
9.5561894 160.7944946 0.2173816
9.5735156 161.2255707 0.2166802
9.5908418 161.4881744 0.2166321
9.6081680 161.5373383 0.2173485
9.6254942 161.6616364 0.2166279
9.6428203 161.8672791 0.2162728
9.6601465 162.0624390 0.2171172
9.6774727 162.0638123 0.2166231
9.6947989 162.2019501 0.2157982
9.7121251 162.7239990 0.2169028
9.7294513 163.1887665 0.2170734
9.7467775 163.4444733 0.2162310
9.7641037 163.5758362 0.2167075
9.7814298 163.8590698 0.2170510
9.7987560 164.0717926 0.2160577
9.8160822 164.3493652 0.2163828
9.8334084 164.6971588 0.2170986
9.8507346 164.8756409 0.2162709
9.8680608 165.0390930 0.2160848
9.8853870 165.4798889 0.2169897
9.9027131 165.8073425 0.2164786
9.9200393 166.2574005 0.2161406
9.9373655 166.7272034 0.2171602
9.9546917 166.9139709 0.2169356
9.9720179 167.1273193 0.2161819
9.9893441 167.2398987 0.2167169
10.0066703 167.4755707 0.2168641
10.0239965 167.8358002 0.2160412
10.0413226 168.1701813 0.2166771
10.0586488 168.2735596 0.2169848
10.0759750 168.6882019 0.2161641
10.0933012 169.3824310 0.2165638
10.1106274 170.0188293 0.2175401
10.1279536 170.2621765 0.2168829
10.1452798 170.7035217 0.2167778
10.1626060 171.5809631 0.2180091
10.1799321 173.0596771 0.2183457
10.1972583 175.7051086 0.2192555
10.2145845 180.2398071 0.2226963
10.2319107 185.9470825 0.2261708
10.2492369 189.7243500 0.2275412
10.2665631 189.3635864 0.2277266
10.2838893 185.2057495 0.2252465
10.3012154 180.0688477 0.2209437
10.3185416 176.3556366 0.2188646
10.3358678 174.4082642 0.2181261
10.3531940 173.5601349 0.2166360
10.3705202 173.2861786 0.2162468
10.3878464 173.2145386 0.2169007
10.4051726 173.3782806 0.2163926
10.4224988 173.5582123 0.2159783
10.4398249 173.7628021 0.2167522
10.4571511 173.9290466 0.2166073
10.4744773 173.8630524 0.2157320
10.4918035 173.6448975 0.2160598
10.5091297 173.4815063 0.2161215
10.5264559 173.4420929 0.2150118
10.5437821 173.5522614 0.2151767
10.5611083 173.5111542 0.2153634
10.5784344 173.3810730 0.2144012
10.5957606 173.4396973 0.2142256
10.6130868 173.8276062 0.2150388
10.6304130 173.7897949 0.2144137
10.6477392 173.4942627 0.2135992
10.6650654 173.2612457 0.2140046
10.6823916 173.1815796 0.2137424
10.6997177 173.4004211 0.2132458
10.7170439 173.5291748 0.2136125
10.7343701 173.6650085 0.2136839
10.7516963 173.7462006 0.2127257
10.7690225 173.7972107 0.2129337
10.7863487 173.7734222 0.2132433
10.8036749 174.1199341 0.2126178
10.8210011 174.2241974 0.2125016
10.8383272 174.2185669 0.2128959
10.8556534 174.7798462 0.2127575
10.8729796 175.0134888 0.2124303
10.8903058 174.7419434 0.2126894
10.9076320 174.4640961 0.2122029
10.9249582 174.3995514 0.2113884
10.9422844 174.4812927 0.2118809
10.9596105 174.5367432 0.2120097
10.9769367 174.5966034 0.2111886
10.9942629 174.8300781 0.2114363
11.0115891 175.1425323 0.2119232
11.0289153 175.4367218 0.2113815
11.0462415 175.3962250 0.2111639
11.0635677 175.3887024 0.2117260
11.0808939 175.6941223 0.2114148
11.0982200 175.9279480 0.2109557
11.1155462 176.0099792 0.2114306
11.1328724 176.0882263 0.2113723
11.1501986 176.0421600 0.2106107
11.1675248 175.9938965 0.2108908
11.1848510 176.4205627 0.2112632
11.2021772 176.7475891 0.2105966
11.2195034 176.8544464 0.2108431
11.2368295 176.7863312 0.2111389
11.2541557 176.7324219 0.2104297
11.2714819 176.7355194 0.2100538
11.2888081 176.6277924 0.2104347
11.3061343 176.5326233 0.2100878
11.3234605 176.6884460 0.2096061
11.3407867 176.8147583 0.2099725
11.3581128 177.0376434 0.2100270
11.3754390 177.2924347 0.2094116
11.3927652 177.6122437 0.2098774
11.4100914 177.8504486 0.2102885
11.4274176 177.8396301 0.2095046
11.4447438 178.1097870 0.2095054
11.4620700 178.6635284 0.2102410
11.4793962 179.0948944 0.2101133
11.4967223 179.1618805 0.2096533
11.5140485 179.1684113 0.2099173
11.5313747 179.3890381 0.2098413
11.5487009 179.5445251 0.2092647
11.5660271 179.4848328 0.2094930
11.5833533 179.3363495 0.2094646
11.6006795 179.3470306 0.2087300
11.6180057 179.5326843 0.2087677
11.6353318 179.8396606 0.2093776
11.6526580 179.9861755 0.2088861
11.6699842 180.0533447 0.2085724
11.6873104 180.1000366 0.2089151
11.7046366 180.2885742 0.2087599
11.7219628 180.4972382 0.2082687
11.7392890 180.7821198 0.2087437
11.7566151 180.9687958 0.2088438
11.7739413 181.0542603 0.2081884
11.7912675 181.0103302 0.2081619
11.8085937 181.0144043 0.2084598
11.8259199 181.1172638 0.2079274
11.8432461 181.3829041 0.2078250
11.8605723 181.7135620 0.2083736
11.8778985 181.9232941 0.2081486
11.8952246 182.1374969 0.2077771
11.9125508 182.4461365 0.2082080
11.9298770 182.7002258 0.2082867
11.9472032 182.9308624 0.2077163
11.9645294 183.1909943 0.2079708
11.9818556 183.4400482 0.2083714
11.9991818 183.5827179 0.2078913
12.0165079 183.6878052 0.2077146
12.0338341 183.8041992 0.2081253
12.0511603 184.0737457 0.2080346
12.0684865 184.1162262 0.2074845
12.0858127 184.2681732 0.2078956
12.1031389 184.5216217 0.2079040
12.1204651 184.7476044 0.2074543
12.1377913 184.8534088 0.2075536
12.1551174 185.2308044 0.2079934
12.1724436 185.6700287 0.2077712
12.1897698 185.6377563 0.2074935
12.2070960 185.5113831 0.2077804
12.2244222 185.6658783 0.2075380
12.2417484 185.9255829 0.2072826
12.2590746 186.1948090 0.2076327
12.2764008 186.2708893 0.2075881
12.2937269 186.2094879 0.2069824
12.3110531 186.4607697 0.2072369
12.3283793 186.7643127 0.2076025
12.3457055 187.0720520 0.2071961
12.3630317 187.5146484 0.2072900
12.3803579 187.8232574 0.2077618
12.3976841 187.9593658 0.2076045
12.4150102 187.9970551 0.2071394
12.4323364 188.0558319 0.2073162
12.4496626 188.1850891 0.2073896
12.4669888 188.3885193 0.2069607
12.4843150 188.7372742 0.2072685
12.5016412 188.9791870 0.2075772
12.5189674 189.1354065 0.2071844
12.5362936 189.4186096 0.2071662
12.5536197 189.7237244 0.2075877
12.5709459 189.6263733 0.2073187
12.5882721 189.6587982 0.2068643
12.6055983 190.0111389 0.2071160
12.6229245 190.4134216 0.2073067
12.6402507 190.6649628 0.2070901
12.6575769 190.7782135 0.2070895
12.6749031 190.9010468 0.2072890
12.6922292 191.2384644 0.2072148
12.7095554 191.3206635 0.2069754
12.7268816 191.2957458 0.2071787
12.7442078 191.6513367 0.2071598
12.7615340 192.0874329 0.2069671
12.7788602 192.3478241 0.2071268
12.7961864 192.2823029 0.2071221
12.8135125 192.3701630 0.2068142
12.8308387 192.5932007 0.2067685
12.8481649 192.9414978 0.2072367
12.8654911 193.1852722 0.2070751
12.8828173 193.3299103 0.2068275
12.9001435 193.8603210 0.2071759
12.9174697 194.6765137 0.2074615
12.9347959 195.8899994 0.2077770
12.9521220 197.5148163 0.2085361
12.9694482 199.0302582 0.2094747
12.9867744 199.5866699 0.2094280
13.0041006 198.7532959 0.2088255
13.0214268 197.2239380 0.2081631
13.0387530 196.0248413 0.2073004
13.0560792 195.5842133 0.2068441
13.0734053 195.4683533 0.2066817
13.0907315 195.7057495 0.2068425
13.1080577 195.9630585 0.2065517
13.1253839 196.0351105 0.2064356
13.1427101 196.2116089 0.2066600
13.1600363 196.7312012 0.2066980
13.1773625 197.2031860 0.2067368
13.1946887 197.7270355 0.2070447
13.2120148 198.2561646 0.2072670
13.2293410 198.8703918 0.2072092
13.2466672 199.6828461 0.2076007
13.2639934 200.4467316 0.2080332
13.2813196 201.4426880 0.2081944
13.2986458 202.7579193 0.2087686
13.3159720 204.0055847 0.2094286
13.3332982 205.0946808 0.2099233
13.3506243 206.3645172 0.2101540
13.3679505 207.9875946 0.2109504
13.3852767 209.7905731 0.2119111
13.4026029 211.7394257 0.2125552
13.4199291 213.8272705 0.2134863
13.4372553 216.0491943 0.2146338
13.4545815 218.1783600 0.2155242
13.4719076 220.3315430 0.2163300
13.4892338 221.9565125 0.2170677
13.5065600 223.2568817 0.2177187
13.5238862 224.2059937 0.2177433
13.5412124 224.8861237 0.2179564
13.5585386 225.1749115 0.2180826
13.5758648 224.9358673 0.2178023
13.5931910 224.0571289 0.2172387
13.6105171 222.6592560 0.2165489
13.6278433 220.8871002 0.2156598
13.6451695 218.8145905 0.2142976
13.6624957 216.3110657 0.2130001
13.6798219 213.6207428 0.2116692
13.6971481 210.8990326 0.2100238
13.7144743 208.1910858 0.2085216
13.7318005 205.5448608 0.2071830
13.7491266 202.6689758 0.2056900
13.7664528 200.0256958 0.2040290
13.7837790 197.7768402 0.2028252
13.8011052 195.6976929 0.2018348
13.8184314 193.9595642 0.2006731
13.8357576 192.4152679 0.1997115
13.8530838 190.8101654 0.1989048
13.8704099 189.2727966 0.1981204
13.8877361 187.8949127 0.1971157
13.9050623 186.7167206 0.1964369
13.9223885 185.5630493 0.1958705
13.9397147 184.5988617 0.1950316
13.9570409 183.9412537 0.1944647
13.9743671 183.3893280 0.1942419
13.9916933 182.7150421 0.1938110
14.0090194 182.1328735 0.1932730
14.0263456 181.6206818 0.1929430
14.0436718 180.9968109 0.1927071
14.0609980 180.3948059 0.1920999
14.0783242 180.1862640 0.1917647
14.0956504 180.6500092 0.1921424
14.1129766 181.5802307 0.1924907
14.1303027 183.0501251 0.1929838
14.1476289 186.0057373 0.1943938
14.1649551 193.4701385 0.1981948
14.1822813 210.4093628 0.2062867
14.1996075 238.9142456 0.2197145
14.2169337 270.1757812 0.2345353
14.2342599 285.3301392 0.2409976
14.2515861 274.3337708 0.2356784
14.2689122 245.3802032 0.2225693
14.2862384 215.5668793 0.2083842
14.3035646 195.0680542 0.1980096
14.3208908 183.9834900 0.1920715
14.3382170 178.7861938 0.1895684
14.3555432 176.1320190 0.1880463
14.3728694 174.4528198 0.1868657
14.3901956 173.5599823 0.1864764
14.4075217 173.4561920 0.1864209
14.4248479 174.5457764 0.1867513
14.4421741 177.5642853 0.1879624
14.4595003 184.1661530 0.1914682
14.4768265 196.0441132 0.1975196
14.4941527 211.5133972 0.2049510
14.5114789 224.4346008 0.2115000
14.5288050 227.5361786 0.2130382
14.5461312 219.3546295 0.2087266
14.5634574 205.2473145 0.2014492
14.5807836 191.7151947 0.1947118
14.5981098 181.1678314 0.1892599
14.6154360 173.7755585 0.1849333
14.6327622 169.0591431 0.1824788
14.6500884 166.0682373 0.1810496
14.6674145 164.1132202 0.1796334
14.6847407 163.0384216 0.1788770
14.7020669 162.3631592 0.1786067
14.7193931 161.8257751 0.1782039
14.7367193 161.4492645 0.1776396
14.7540455 161.2577362 0.1775516
14.7713717 161.2188568 0.1777020
14.7886979 161.4017944 0.1774716
14.8060240 161.6618958 0.1773717
14.8233502 162.5249786 0.1779614
14.8406764 164.5863495 0.1790244
14.8580026 166.6389618 0.1798232
14.8753288 167.6353149 0.1804258
14.8926550 166.9109955 0.1801874
14.9099812 165.5846558 0.1793058
14.9273073 163.6123505 0.1777535
14.9446335 162.2107849 0.1772868
14.9619597 161.2839966 0.1766668
14.9792859 160.5964966 0.1758833
14.9966121 159.6981201 0.1754553
15.0139383 158.9311829 0.1753324
15.0312645 158.2030792 0.1745602
15.0485907 157.4962158 0.1738553
15.0659168 156.6733551 0.1735971
15.0832430 155.9930573 0.1731690
15.1005692 155.4579620 0.1724675
15.1178954 154.8788605 0.1721810
15.1352216 154.2368317 0.1720541
15.1525478 153.4712372 0.1713722
15.1698740 152.5209045 0.1704951
15.1872001 151.2621002 0.1699711
15.2045263 149.9039917 0.1693031
15.2218525 148.4925690 0.1679572
15.2391787 147.4042053 0.1673398
15.2565049 146.6046906 0.1672132
15.2738311 146.4846191 0.1668846
15.2911573 147.2590179 0.1669479
15.3084835 148.6219635 0.1679396
15.3258096 148.9055328 0.1682474
15.3431358 147.1039581 0.1668622
15.3604620 143.8160400 0.1647055
15.3777882 140.6380005 0.1631671
15.3951144 138.5278015 0.1618539
15.4124406 137.2525787 0.1606975
15.4297668 136.1474609 0.1601300
15.4470930 135.1815186 0.1597958
15.4644191 134.4009705 0.1589649
15.4817453 133.6516571 0.1582364
15.4990715 132.9797516 0.1580931
15.5163977 132.3706055 0.1577537
15.5337239 131.6052704 0.1568171
15.5510501 130.8670044 0.1563383
15.5683763 130.4074707 0.1564019
15.5857024 130.1206665 0.1559336
15.6030286 129.7945862 0.1553900
15.6203548 129.3392944 0.1553375
15.6376810 128.9712067 0.1551512
15.6550072 128.5201263 0.1544216
15.6723334 127.9236603 0.1540153
15.6896596 127.1697464 0.1537880
15.7069858 126.6385803 0.1533679
15.7243119 126.0378723 0.1525037
15.7416381 125.4770813 0.1523625
15.7589643 124.8840637 0.1521238
15.7762905 124.3495560 0.1513916
15.7936167 123.8745651 0.1508776
15.8109429 123.6315384 0.1510053
15.8282691 123.3338242 0.1507938
15.8455953 122.8333359 0.1499997
15.8629214 122.4118118 0.1498061
15.8802476 122.0790710 0.1499054
15.8975738 121.7801285 0.1493885
15.9149000 121.4037399 0.1487667
15.9322262 121.0395355 0.1488256
15.9495524 120.7081757 0.1486957
15.9668786 120.2797394 0.1479401
15.9842047 119.8947678 0.1476861
16.0015309 119.5783844 0.1478457
16.0188571 119.1698837 0.1474335
16.0361833 118.7130280 0.1467247
16.0535095 118.4259186 0.1466942
16.0708357 118.0873871 0.1467045
16.0881619 117.5682602 0.1459928
16.1054881 117.1072693 0.1454434
16.1228142 116.7296371 0.1455718
16.1401404 116.4048767 0.1453404
16.1574666 116.2152023 0.1447448
16.1747928 116.0288467 0.1447199
16.1921190 115.6825104 0.1448785
16.2094452 115.2212219 0.1442810
16.2267714 114.8822784 0.1437152
16.2440975 114.6409836 0.1437832
16.2614237 114.4603958 0.1437832
16.2787499 114.2630386 0.1432344
16.2960761 113.9370728 0.1428670
16.3134023 113.4433823 0.1428558
16.3307285 112.9911423 0.1424828
16.3480547 112.7550049 0.1419339
16.3653809 112.6471176 0.1419086
16.3827070 112.6345520 0.1422012
16.4000332 112.6021118 0.1418640
16.4173594 112.6995010 0.1415451
16.4346856 112.8775787 0.1418777
16.4520118 113.3758087 0.1423376
16.4693380 114.1858139 0.1422974
16.4866642 116.2884598 0.1434649
16.5039904 120.4188995 0.1462750
16.5213165 127.4299393 0.1504150
16.5386427 137.2617035 0.1558002
16.5559689 146.2319489 0.1609921
16.5732951 149.4900208 0.1633217
16.5906213 144.5293427 0.1600975
16.6079475 134.5769043 0.1537828
16.6252737 124.7134476 0.1482922
16.6425998 117.7246628 0.1442067
16.6599260 113.5655975 0.1411889
16.6772522 111.2193832 0.1396177
16.6945784 110.0519943 0.1392401
16.7119046 109.5490036 0.1388962
16.7292308 109.2612915 0.1382731
16.7465570 108.8742218 0.1381039
16.7638832 108.1839905 0.1380206
16.7812093 107.4608917 0.1372166
16.7985355 106.8001709 0.1363495
16.8158617 106.3959885 0.1364678
16.8331879 106.0512848 0.1363877
16.8505141 105.6837769 0.1356709
16.8678403 105.4218521 0.1353802
16.8851665 105.2138062 0.1355405
16.9024927 105.1135864 0.1354496
16.9198188 105.0877151 0.1350015
16.9371450 104.9972763 0.1348925
16.9544712 105.0439148 0.1353258
16.9717974 105.0166931 0.1350934
16.9891236 104.5486679 0.1342986
17.0064498 103.9097061 0.1341385
17.0237760 103.5642776 0.1341465
17.0411021 103.2981110 0.1335488
17.0584283 102.9187469 0.1330392
17.0757545 102.5549316 0.1330800
17.0930807 102.4174881 0.1330972
17.1104069 102.5573120 0.1327324
17.1277331 102.6103058 0.1326285
17.1450593 102.5712509 0.1330091
17.1623855 102.7932739 0.1330616
17.1797116 103.1560516 0.1327398
17.1970378 103.7478333 0.1333064
17.2143640 104.4740982 0.1341440
17.2316902 104.8688660 0.1340495
17.2490164 104.5455093 0.1334975
17.2663426 103.6504288 0.1331272
17.2836688 102.8369675 0.1328221
17.3009949 102.0934372 0.1318864
17.3183211 101.5586548 0.1312421
17.3356473 101.4156799 0.1315714
17.3529735 101.4460754 0.1316390
17.3702997 101.5661392 0.1312153
17.3876259 102.0396118 0.1314961
17.4049521 102.9208145 0.1324345
17.4222783 103.7030945 0.1328149
17.4396044 103.7754898 0.1324181
17.4569306 103.2987366 0.1322143
17.4742568 102.8546906 0.1322308
17.4915830 103.0081787 0.1320415
17.5089092 103.9413452 0.1321799
17.5262354 105.6502609 0.1335580
17.5435616 108.0875168 0.1354262
17.5608878 110.4358292 0.1363938
17.5782139 111.4104156 0.1368112
17.5955401 110.1694031 0.1363926
17.6128663 107.5613174 0.1347820
17.6301925 104.8119278 0.1325417
17.6475187 102.4784088 0.1308943
17.6648449 100.8676529 0.1302658
17.6821711 99.8064117 0.1295288
17.6994972 99.0494003 0.1285143
17.7168234 98.5207443 0.1282396
17.7341496 98.0594559 0.1282923
17.7514758 97.7475815 0.1278710
17.7688020 97.4464340 0.1271769
17.7861282 97.3685226 0.1273815
17.8034544 97.3540649 0.1276718
17.8207806 97.2080536 0.1272296
17.8381067 97.0247345 0.1267342
17.8554329 97.0183563 0.1270623
17.8727591 96.9856110 0.1272855
17.8900853 96.8911209 0.1267361
17.9074115 96.9093552 0.1264922
17.9247377 96.8345871 0.1268833
17.9420639 96.7934952 0.1269176
17.9593900 96.7971191 0.1263850
17.9767162 96.7977982 0.1263070
17.9940424 96.8656616 0.1267807
18.0113686 96.7323532 0.1265943
18.0286948 96.6330414 0.1260415
18.0460210 96.4790726 0.1259716
18.0633472 96.2822800 0.1262358
18.0806734 95.9592743 0.1257830
18.0979995 95.7514648 0.1251612
18.1153257 95.5168839 0.1251315
18.1326519 95.5705795 0.1255593
18.1499781 95.8681946 0.1254122
18.1673043 96.0106430 0.1250754
18.1846305 96.0968704 0.1254658
18.2019567 96.0347061 0.1256872
18.2192829 95.8658905 0.1251909
18.2366090 95.6482010 0.1247051
18.2539352 95.4159927 0.1248852
18.2712614 95.2609177 0.1250081
18.2885876 95.2083588 0.1245047
18.3059138 95.3323669 0.1243557
18.3232400 95.5758057 0.1248839
18.3405662 96.0886612 0.1253546
18.3578923 96.9318085 0.1254063
18.3752185 97.7662048 0.1257961
18.3925447 98.2934265 0.1265763
18.4098709 98.2849274 0.1265896
18.4271971 97.5888519 0.1255707
18.4445233 96.5525360 0.1248207
18.4618495 95.6384506 0.1246274
18.4791757 94.8522797 0.1240183
18.4965018 94.2788162 0.1230736
18.5138280 94.0167236 0.1229555
18.5311542 93.8594742 0.1232070
18.5484804 93.9299774 0.1231609
18.5658066 93.8293533 0.1225826
18.5831328 93.7357483 0.1226492
18.6004590 93.7178116 0.1230414
18.6177852 93.7088165 0.1228103
18.6351113 93.7010422 0.1223372
18.6524375 93.7041550 0.1225593
18.6697637 93.7098083 0.1229697
18.6870899 93.6992874 0.1226827
18.7044161 93.6166916 0.1221294
18.7217423 93.5226059 0.1223174
18.7390685 93.6203308 0.1227308
18.7563946 93.8381500 0.1224831
18.7737208 93.9301605 0.1220864
18.7910470 94.1578674 0.1224855
18.8083732 94.5275497 0.1230320
18.8256994 94.9679794 0.1229081
18.8430256 95.5658951 0.1228214
18.8603518 96.5729294 0.1238133
18.8776780 98.3867569 0.1252938
18.8950041 101.7286606 0.1269101
18.9123303 107.3606339 0.1300224
18.9296565 115.6237030 0.1354658
18.9469827 124.9984665 0.1413304
18.9643089 131.7363739 0.1447059
18.9816351 131.8881683 0.1444508
18.9989613 125.1404877 0.1409996
19.0162874 115.2883530 0.1354157
19.0336136 106.6658554 0.1296176
19.0509398 100.9712219 0.1257770
19.0682660 97.8052521 0.1242092
19.0855922 96.0606232 0.1232949
19.1029184 95.0668411 0.1221466
19.1202446 94.3490295 0.1214470
19.1375708 93.8046341 0.1215375
19.1548969 93.3728180 0.1213619
19.1722231 93.0652924 0.1206022
19.1895493 92.8843384 0.1203638
19.2068755 92.7493668 0.1206514
19.2242017 92.7951202 0.1208605
19.2415279 92.9027100 0.1204898
19.2588541 93.0750198 0.1203627
19.2761803 93.6038895 0.1211784
19.2935064 94.2819443 0.1218040
19.3108326 94.7503738 0.1215848
19.3281588 94.5505447 0.1211822
19.3454850 93.9262085 0.1211511
19.3628112 93.3135147 0.1208794
19.3801374 92.9269104 0.1200064
19.3974636 92.7251663 0.1197018
19.4147897 92.6088943 0.1200257
19.4321159 92.7157822 0.1201988
19.4494421 93.1974182 0.1200011
19.4667683 94.3052979 0.1205357
19.4840945 96.0929489 0.1220869
19.5014207 98.2330017 0.1237670
19.5187469 99.6990204 0.1242178
19.5360731 99.8028793 0.1240515
19.5533992 98.3913727 0.1235834
19.5707254 96.2497711 0.1223961
19.5880516 94.4254379 0.1206590
19.6053778 93.0515747 0.1194628
19.6227040 92.3195572 0.1193989
19.6400302 92.0580750 0.1194161
19.6573564 91.7651596 0.1186978
19.6746826 91.3416977 0.1181078
19.6920087 91.2085190 0.1183985
19.7093349 91.1632767 0.1185956
19.7266611 91.0025101 0.1180344
19.7439873 90.9080200 0.1177027
19.7613135 90.9796753 0.1180872
19.7786397 91.1589661 0.1185831
19.7959659 91.2931290 0.1182877
19.8132920 91.3224411 0.1179122
19.8306182 91.3053360 0.1182091
19.8479444 91.3556824 0.1186394
19.8652706 91.3960953 0.1181659
19.8825968 91.4078064 0.1177193
19.8999230 91.1720276 0.1178251
19.9172492 90.9295654 0.1180300
19.9345754 90.8025436 0.1175046
19.9519015 90.8087845 0.1171175
19.9692277 90.7561188 0.1172943
19.9865539 90.8226242 0.1177331
20.0038801 90.8227234 0.1175199
20.0212063 90.7128525 0.1170386
20.0385325 90.5439682 0.1170494
20.0558587 90.4786148 0.1174889
20.0731848 90.4453125 0.1173729
20.0905110 90.3931885 0.1167143
20.1078372 90.2495270 0.1165534
20.1251634 90.2354660 0.1170985
20.1424896 90.3172607 0.1170238
20.1598158 90.4768295 0.1164914
20.1771420 90.5980148 0.1165487
20.1944682 90.7949142 0.1171843
20.2117943 90.8178482 0.1171577
20.2291205 90.8703995 0.1166280
20.2464467 91.0205841 0.1167060
20.2637729 91.3561859 0.1173374
20.2810991 92.0862503 0.1179992
20.2984253 93.1647720 0.1182161
20.3157515 95.0543518 0.1190962
20.3330777 98.7434921 0.1216878
20.3504038 104.7052689 0.1256580
20.3677300 111.9914932 0.1295533
20.3850562 117.2109985 0.1321339
20.4023824 117.4147415 0.1326189
20.4197086 112.5526733 0.1301722
20.4370348 105.8270950 0.1256370
20.4543610 100.1129990 0.1216751
20.4716871 96.3469391 0.1196974
20.4890133 94.7235336 0.1191675
20.5063395 94.7542267 0.1189804
20.5236657 95.6950378 0.1190590
20.5409919 97.8149796 0.1204892
20.5583181 101.3251877 0.1230844
20.5756443 105.2569962 0.1254013
20.5929705 107.5074463 0.1261889
20.6102966 106.6469803 0.1255833
20.6276228 103.1456146 0.1238288
20.6449490 98.8634720 0.1212908
20.6622752 95.3128052 0.1185232
20.6796014 93.0677948 0.1169222
20.6969276 91.8822327 0.1166391
20.7142538 91.1850052 0.1165300
20.7315800 90.7711639 0.1157854
20.7489061 90.5324707 0.1153272
20.7662323 90.1919785 0.1154283
20.7835585 89.9591064 0.1155852
20.8008847 90.0141144 0.1152389
20.8182109 90.0327148 0.1147565
20.8355371 90.2974319 0.1151048
20.8528633 90.9585571 0.1158886
20.8701894 91.8786087 0.1163859
20.8875156 92.3896027 0.1161970
20.9048418 92.0773239 0.1160194
20.9221680 91.2466965 0.1159403
20.9394942 90.4815369 0.1155615
20.9568204 90.0280991 0.1147794
20.9741466 89.7251053 0.1143329
20.9914728 89.5498123 0.1145520
21.0087989 89.6288757 0.1148581
21.0261251 89.8252945 0.1145214
21.0434513 89.9653397 0.1142343
21.0607775 89.9086685 0.1144577
21.0781037 89.5768585 0.1146807
21.0954299 89.1747055 0.1141161
21.1127561 89.0282669 0.1135252
21.1300822 88.8574066 0.1136001
21.1474084 88.5916214 0.1138759
21.1647346 88.3203201 0.1136776
21.1820608 88.1006851 0.1130104
21.1993870 88.1270447 0.1128775
21.2167132 88.3176346 0.1133525
21.2340394 88.3595963 0.1135093
21.2513656 88.4381638 0.1131246
21.2686917 88.5141602 0.1128817
21.2860179 88.4794464 0.1131000
21.3033441 88.5395126 0.1135355
21.3206703 88.6781158 0.1134012
21.3379965 88.9496613 0.1131255
21.3553227 89.2236023 0.1133747
21.3726489 89.6149216 0.1140515
21.3899751 90.5466843 0.1146225
21.4073012 91.5430298 0.1146944
21.4246274 91.7185898 0.1147007
21.4419536 90.7962112 0.1144465
21.4592798 89.4130707 0.1137271
21.4766060 88.2863693 0.1126255
21.4939322 87.5764771 0.1118420
21.5112584 87.1525421 0.1118412
21.5285845 86.8065948 0.1120406
21.5459107 86.5793076 0.1116880
21.5632369 86.5237350 0.1111698
21.5805631 86.5212326 0.1111525
21.5978893 86.4846420 0.1114885
21.6152155 86.4071121 0.1115190
21.6325417 86.3232040 0.1109821
21.6498679 86.4035873 0.1108037
21.6671940 86.4331131 0.1111609
21.6845202 86.3450165 0.1114080
21.7018464 86.4103622 0.1111659
21.7191726 86.4620438 0.1107748
21.7364988 86.4593353 0.1109314
21.7538250 86.3454895 0.1111830
21.7711512 86.5268173 0.1112840
21.7884774 86.8838043 0.1110280
21.8058035 87.5292053 0.1112619
21.8231297 88.5268250 0.1121833
21.8404559 90.1123505 0.1134047
21.8577821 92.9786987 0.1148652
21.8751083 97.5677948 0.1173520
21.8924345 102.6985397 0.1206551
21.9097607 105.9384995 0.1230172
21.9270868 105.3249207 0.1226116
21.9444130 101.2698059 0.1196082
21.9617392 96.1827774 0.1163590
21.9790654 91.9070282 0.1140322
21.9963916 89.2932892 0.1126353
22.0137178 87.7065125 0.1112686
22.0310440 86.7228775 0.1103270
22.0483702 86.0838394 0.1101264
22.0656963 85.7836151 0.1102898
22.0830225 85.7629242 0.1102186
22.1003487 85.5581360 0.1095934
22.1176749 85.3281555 0.1093510
22.1350011 85.2425156 0.1096518
22.1523273 85.2943573 0.1098350
22.1696535 85.2422485 0.1094582
22.1869796 85.1141739 0.1090397
22.2043058 85.2161026 0.1093142
22.2216320 85.3953323 0.1097173
22.2389582 85.3333817 0.1095983
22.2562844 85.0297318 0.1090357
22.2736106 84.8121338 0.1087628
22.2909368 84.8476791 0.1090546
22.3082630 84.9870682 0.1093181
22.3255891 85.0495987 0.1091013
22.3429153 85.1475143 0.1088752
22.3602415 85.1835785 0.1089494
22.3775677 85.0102615 0.1091112
22.3948939 84.6826096 0.1089475
22.4122201 84.5342331 0.1085168
22.4295463 84.6323853 0.1083380
22.4468725 84.7983627 0.1086775
22.4641986 84.8891144 0.1089895
22.4815248 84.9520645 0.1088443
22.4988510 85.2595215 0.1086782
22.5161772 85.6522141 0.1089236
22.5335034 85.9746094 0.1094602
22.5508296 86.3792343 0.1098126
22.5681558 86.8650513 0.1097920
22.5854819 86.9911270 0.1095852
22.6028081 86.7321777 0.1096075
22.6201343 86.3333664 0.1096275
22.6374605 86.0726013 0.1093809
22.6547867 86.1065140 0.1090057
22.6721129 87.0040512 0.1094561
22.6894391 90.2678986 0.1116353
22.7067653 99.6003647 0.1173529
22.7240914 114.2266312 0.1260332
22.7414176 120.6418991 0.1298391
22.7587438 111.3871460 0.1241495
22.7760700 98.4000626 0.1162154
22.7933962 91.1144028 0.1121850
22.8107224 88.5450134 0.1103921
22.8280486 87.4048386 0.1095051
22.8453748 86.4399109 0.1090306
22.8627009 85.6374588 0.1086571
22.8800271 85.0544739 0.1082783
22.8973533 84.5997086 0.1077241
22.9146795 84.3257446 0.1073993
22.9320057 84.2096024 0.1075370
22.9493319 83.9783478 0.1075374
22.9666581 83.7320251 0.1072676
22.9839842 83.5617676 0.1068456
23.0013104 83.5564499 0.1067788
23.0186366 83.5865479 0.1069896
23.0359628 83.5643845 0.1071083
23.0532890 83.4250946 0.1068475
23.0706152 83.2462463 0.1064324
23.0879414 83.0850830 0.1064054
23.1052676 82.8734207 0.1064967
23.1225937 82.8035355 0.1065319
23.1399199 82.7269516 0.1061946
23.1572461 82.6010284 0.1058462
23.1745723 82.4316864 0.1058555
23.1918985 82.3014297 0.1059849
23.2092247 82.4220123 0.1060578
23.2265509 82.4783020 0.1058004
23.2438770 82.5138474 0.1057359
23.2612032 82.5912857 0.1059571
23.2785294 82.9398956 0.1063419
23.2958556 83.4278259 0.1064872
23.3131818 84.0339661 0.1065814
23.3305080 84.3373032 0.1067301
23.3478342 84.3163986 0.1069368
23.3651604 84.0496368 0.1069170
23.3824865 83.5843887 0.1064813
23.3998127 83.0696106 0.1058864
23.4171389 82.6005859 0.1056001
23.4344651 82.2892151 0.1055582
23.4517913 82.1685867 0.1054776
23.4691175 82.2029495 0.1053238
23.4864437 82.1375732 0.1051072
23.5037699 82.0649948 0.1051374
23.5210960 82.0541840 0.1053024
23.5384222 81.9177017 0.1052543
23.5557484 81.8369522 0.1050551
23.5730746 81.7179794 0.1046997
23.5904008 81.8207550 0.1048130
23.6077270 81.9767151 0.1050155
23.6250532 81.9928284 0.1050624
23.6423793 82.0907516 0.1050261
23.6597055 82.4532776 0.1051144
23.6770317 83.0110779 0.1055529
23.6943579 83.6490555 0.1059966
23.7116841 84.8566971 0.1067159
23.7290103 87.1598969 0.1079850
23.7463365 90.6775742 0.1099154
23.7636627 95.3964996 0.1129125
23.7809888 100.2753906 0.1160063
23.7983150 103.0944061 0.1177501
23.8156412 102.2210312 0.1170606
23.8329674 98.3119583 0.1145116
23.8502936 93.4642944 0.1116042
23.8676198 89.6042175 0.1092994
23.8849460 87.2300568 0.1078621
23.9022722 86.1512070 0.1070793
23.9195983 85.8290100 0.1067955
23.9369245 86.1465378 0.1070595
23.9542507 87.3770905 0.1078200
23.9715769 89.7716980 0.1091657
23.9889031 94.5143661 0.1115827
24.0062293 105.9030533 0.1173627
24.0235555 135.2151794 0.1325038
24.0408816 194.2422791 0.1597786
24.0582078 267.1613770 0.1876312
24.0755340 310.3484802 0.2015582
24.0928602 287.7862549 0.1945127
24.1101864 213.5289612 0.1672800
24.1275126 144.8333130 0.1364447
24.1448388 110.2168121 0.1195718
24.1621650 96.9744186 0.1127534
24.1794911 93.2484207 0.1107579
24.1968173 95.8384781 0.1127830
24.2141435 107.6608047 0.1198032
24.2314697 134.2132111 0.1329463
24.2487959 172.6273193 0.1531188
24.2661221 203.1822357 0.1720258
24.2834483 174.2612762 0.1549744
24.3007744 123.4730606 0.1269602
24.3181006 94.4535751 0.1116524
24.3354268 86.3617554 0.1068777
24.3527530 83.9079437 0.1051036
24.3700792 82.8866119 0.1044079
24.3874054 82.1390305 0.1038774
24.4047316 81.6642532 0.1036569
24.4220578 81.4332275 0.1035456
24.4393839 81.3311768 0.1033665
24.4567101 81.1916122 0.1032637
24.4740363 81.1380615 0.1031665
24.4913625 81.1945953 0.1032272
24.5086887 81.1644135 0.1032203
24.5260149 81.0312424 0.1029672
24.5433411 81.0269470 0.1029660
24.5606673 81.1213150 0.1030738
24.5779934 81.1783524 0.1031556
24.5953196 81.1308899 0.1031695
24.6126458 81.0922470 0.1029665
24.6299720 81.1247711 0.1028566
24.6472982 81.0564804 0.1027841
24.6646244 81.0514984 0.1028146
24.6819506 81.1336823 0.1030799
24.6992767 81.0636063 0.1029906
24.7166029 80.9210129 0.1026907
24.7339291 80.9439468 0.1026103
24.7512553 81.1067429 0.1026633
24.7685815 81.0933304 0.1027802
24.7859077 81.0042343 0.1027913
24.8032339 80.9644852 0.1026717
24.8205601 80.9150848 0.1025737
24.8378862 81.0300751 0.1025541
24.8552124 81.2992935 0.1027448
24.8725386 81.4998169 0.1029213
24.8898648 81.5269775 0.1028662
24.9071910 81.3666000 0.1026867
24.9245172 81.3858337 0.1027332
24.9418434 81.4057770 0.1027150
24.9591696 81.5178833 0.1028813
24.9764957 81.5604553 0.1028130
24.9938219 81.5265808 0.1026295
25.0111481 81.6019592 0.1026687
25.0284743 81.9389572 0.1028872
25.0458005 82.6954269 0.1035051
25.0631267 83.7986526 0.1041738
25.0804529 85.4880142 0.1050507
25.0977790 87.7345657 0.1063166
25.1151052 89.6642303 0.1074769
25.1324314 90.2409668 0.1079636
25.1497576 89.1877365 0.1074678
25.1670838 87.0791779 0.1060536
25.1844100 84.9175644 0.1045275
25.2017362 83.2813644 0.1033726
25.2190624 82.3443680 0.1027920
25.2363885 81.8692245 0.1027319
25.2537147 81.4425659 0.1024924
25.2710409 81.2553406 0.1022315
25.2883671 81.1927872 0.1020650
25.3056933 81.0943375 0.1018789
25.3230195 80.9609451 0.1018736
25.3403457 80.8953705 0.1020368
25.3576718 80.8009109 0.1018918
25.3749980 80.7867432 0.1018086
25.3923242 80.6992340 0.1015871
25.4096504 80.6876526 0.1015419
25.4269766 80.5238571 0.1015752
25.4443028 80.3524933 0.1015043
25.4616290 80.3352737 0.1014136
25.4789552 80.4047775 0.1013867
25.4962813 80.3407211 0.1012285
25.5136075 80.2502136 0.1012109
25.5309337 80.2684097 0.1013480
25.5482599 80.2095566 0.1012502
25.5655861 80.1313400 0.1011046
25.5829123 80.0905609 0.1010112
25.6002385 79.9587402 0.1008489
25.6175647 80.0173416 0.1010118
25.6348908 80.1189575 0.1011511
25.6522170 80.1375885 0.1010495
25.6695432 80.1866913 0.1009566
25.6868694 80.4484100 0.1010565
25.7041956 80.8598022 0.1013701
25.7215218 81.0511780 0.1016313
25.7388480 80.8491516 0.1014673
25.7561741 80.5196609 0.1011033
25.7735003 80.3004227 0.1008598
25.7908265 80.2722702 0.1008231
25.8081527 80.3863373 0.1010203
25.8254789 80.4309540 0.1011418
25.8428051 80.5098953 0.1011238
25.8601313 80.5683136 0.1009712
25.8774575 80.5282516 0.1008291
25.8947836 80.5073242 0.1008607
25.9121098 80.5901413 0.1010882
25.9294360 80.7092972 0.1012128
25.9467622 80.9375000 0.1011947
25.9640884 81.1267319 0.1011529
25.9814146 81.1861954 0.1010903
25.9987408 81.1517715 0.1011808
26.0160669 80.9024429 0.1012380
26.0333931 80.6300201 0.1010500
26.0507193 80.4815903 0.1007599
26.0680455 80.4123611 0.1005462
26.0853717 80.4653244 0.1005155
26.1026979 80.4546204 0.1005740
26.1200241 80.7384491 0.1009971
26.1373503 81.2677460 0.1013562
26.1546764 81.6115494 0.1013537
26.1720026 81.6544952 0.1011855
26.1893288 81.5546341 0.1010662
26.2066550 81.3468475 0.1010505
26.2239812 81.1572037 0.1011448
26.2413074 80.9209671 0.1009886
26.2586336 80.6630859 0.1006290
26.2759598 80.3813782 0.1002517
26.2932859 80.2005005 0.1000936
26.3106121 80.1322250 0.1001724
26.3279383 80.1079483 0.1003802
26.3452645 79.9652023 0.1002614
26.3625907 79.8813477 0.1000065
26.3799169 79.8588715 0.0998224
26.3972431 79.8429871 0.0997810
26.4145692 79.7757492 0.0998771
26.4318954 79.6852570 0.0999755
26.4492216 79.6757355 0.0999438
26.4665478 79.7405930 0.0997684
26.4838740 79.8313370 0.0996740
26.5012002 79.8127289 0.0996478
26.5185264 79.7392731 0.0997411
26.5358526 79.6609192 0.0998674
26.5531787 79.6895142 0.0998752
26.5705049 79.8764877 0.0997364
26.5878311 79.9574509 0.0995673
26.6051573 79.8723755 0.0995184
26.6224835 79.8561172 0.0996973
26.6398097 79.8420181 0.0998698
26.6571359 79.8259811 0.0998968
26.6744621 79.7541046 0.0995822
26.6917882 79.8348541 0.0993842
26.7091144 79.9625854 0.0994340
26.7264406 79.9155350 0.0995559
26.7437668 79.8832321 0.0997651
26.7610930 79.9303665 0.0998155
26.7784192 79.8938675 0.0995468
26.7957454 79.9560776 0.0993810
26.8130715 80.0910110 0.0994254
26.8303977 80.2246628 0.0996389
26.8477239 80.2822189 0.0998731
26.8650501 80.3231049 0.0999628
26.8823763 80.4167175 0.0998209
26.8997025 80.6487045 0.0997208
26.9170287 81.0898056 0.0999403
26.9343549 81.6445236 0.1003885
26.9516810 82.0915146 0.1008443
26.9690072 82.0442886 0.1008850
26.9863334 81.7713165 0.1006474
27.0036596 81.3519516 0.1001365
27.0209858 80.9806900 0.0997545
27.0383120 80.7890472 0.0996571
27.0556382 80.6314316 0.0996885
27.0729643 80.4022064 0.0997364
27.0902905 80.2789536 0.0996521
27.1076167 80.4632111 0.0995704
27.1249429 80.5265427 0.0993506
27.1422691 80.7345963 0.0994395
27.1595953 80.9214020 0.0997167
27.1769215 81.0282059 0.1000002
27.1942477 81.1041412 0.1001301
27.2115738 81.0691986 0.0998872
27.2289000 80.9777451 0.0995093
27.2462262 80.8050079 0.0993218
27.2635524 80.6418610 0.0993804
27.2808786 80.3689728 0.0994252
27.2982048 80.1554184 0.0994771
27.3155310 79.8984680 0.0991806
27.3328572 79.7089615 0.0987718
27.3501833 79.4955139 0.0984431
27.3675095 79.4213715 0.0984293
27.3848357 79.3846970 0.0985107
27.4021619 79.4603043 0.0987436
27.4194881 79.3736801 0.0987705
27.4368143 79.1884384 0.0985187
27.4541405 79.1327133 0.0982649
27.4714666 79.1024094 0.0981390
27.4887928 78.9693375 0.0980422
27.5061190 79.1653748 0.0983588
27.5234452 79.4447632 0.0987260
27.5407714 79.8034973 0.0989343
27.5580976 80.1841888 0.0988651
27.5754238 80.2757187 0.0986596
27.5927500 80.1001892 0.0984998
27.6100761 79.9792862 0.0986474
27.6274023 79.8674850 0.0988459
27.6447285 79.9558258 0.0990188
27.6620547 80.0807495 0.0989188
27.6793809 80.3635330 0.0987765
27.6967071 81.0211716 0.0990501
27.7140333 81.8565445 0.0995895
27.7313595 82.8688583 0.1003386
27.7486856 84.2311554 0.1013703
27.7660118 86.2628708 0.1027340
27.7833380 90.3542252 0.1050074
27.8006642 100.9147491 0.1104927
27.8179904 129.2144928 0.1244002
27.8353166 188.7340393 0.1508570
27.8526428 269.0954285 0.1820824
27.8699689 315.6337891 0.1992338
27.8872951 290.1687317 0.1917725
27.9046213 218.8719025 0.1654662
27.9219475 153.0639801 0.1370244
27.9392737 114.2032471 0.1178551
27.9565999 96.2552643 0.1081221
27.9739261 88.6146164 0.1037937
27.9912523 85.5832901 0.1019878
28.0085784 85.8143387 0.1019207
28.0259046 92.1175079 0.1049751
28.0432308 111.2452698 0.1144263
28.0605570 143.2323151 0.1296427
28.0778832 164.1843719 0.1385562
28.0952094 149.2603455 0.1327088
28.1125356 112.3023148 0.1152729
28.1298617 89.9543915 0.1037453
28.1471879 82.3896790 0.0994655
28.1645141 80.0772095 0.0978831
28.1818403 79.0050583 0.0972172
28.1991665 78.3200378 0.0969158
28.2164927 77.9334641 0.0968409
28.2338189 77.6723175 0.0968279
28.2511451 77.5242691 0.0968638
28.2684712 77.5107880 0.0967393
28.2857974 77.4512024 0.0964499
28.3031236 77.2817688 0.0961347
28.3204498 77.1790619 0.0960474
28.3377760 77.0752716 0.0961583
28.3551022 76.9132233 0.0962497
28.3724284 76.8159714 0.0963023
28.3897546 76.7403183 0.0961079
28.4070807 76.5884171 0.0957001
28.4244069 76.5442734 0.0955307
28.4417331 76.6378021 0.0956509
28.4590593 76.7493668 0.0958172
28.4763855 76.7692261 0.0959555
28.4937117 76.7803574 0.0961693
28.5110379 76.7492294 0.0961600
28.5283640 76.5661163 0.0957712
28.5456902 76.4696884 0.0954342
28.5630164 76.5811386 0.0954223
28.5803426 76.8433762 0.0957146
28.5976688 77.2603149 0.0961202
28.6149950 77.9634857 0.0966304
28.6323212 79.5038147 0.0976197
28.6496474 82.3534164 0.0992285
28.6669735 86.2189713 0.1013466
28.6842997 89.6393051 0.1032124
28.7016259 90.9834518 0.1039779
28.7189521 89.7759857 0.1033866
28.7362783 87.3093109 0.1021454
28.7536045 84.5562592 0.1006451
28.7709307 82.1885300 0.0992112
28.7882569 80.3483200 0.0978741
28.8055830 78.8565063 0.0967214
28.8229092 77.8470917 0.0960078
28.8402354 77.2384415 0.0956673
28.8575616 76.7555161 0.0954906
28.8748878 76.4116821 0.0954351
28.8922140 76.2697372 0.0954675
28.9095402 76.1345444 0.0953063
28.9268663 76.0558548 0.0950103
28.9441925 75.9473953 0.0947539
28.9615187 75.9199677 0.0947291
28.9788449 75.9419785 0.0947752
28.9961711 75.9787903 0.0949382
29.0134973 75.9364929 0.0950681
29.0308235 76.0412445 0.0952069
29.0481497 76.1516800 0.0951646
29.0654758 76.2733002 0.0950396
29.0828020 76.2872162 0.0948387
29.1001282 76.3046188 0.0948101
29.1174544 76.3351593 0.0949139
29.1347806 76.3658218 0.0950693
29.1521068 76.4476547 0.0952314
29.1694330 76.8032913 0.0955137
29.1867591 77.2693863 0.0956989
29.2040853 78.0071869 0.0959566
29.2214115 79.2250824 0.0965104
29.2387377 81.0804596 0.0976111
29.2560639 83.3438263 0.0990301
29.2733901 85.5920792 0.1004747
29.2907163 87.1223602 0.1015540
29.3080425 87.1239471 0.1016255
29.3253686 85.5755157 0.1006521
29.3426948 83.0376205 0.0989722
29.3600210 80.6240616 0.0973364
29.3773472 79.0892334 0.0963103
29.3946734 78.2049255 0.0958175
29.4119996 77.6121674 0.0955666
29.4293258 77.0843124 0.0953939
29.4466520 76.4687424 0.0950648
29.4639781 75.9707108 0.0947114
29.4813043 75.7349548 0.0944698
29.4986305 75.6153259 0.0942453
29.5159567 75.4839935 0.0940480
29.5332829 75.3596497 0.0939596
29.5506091 75.1072388 0.0938304
29.5679353 74.9647217 0.0938663
29.5852614 75.1034241 0.0940511
29.6025876 75.4075394 0.0942283
29.6199138 75.8175659 0.0944181
29.6372400 76.2965469 0.0946299
29.6545662 76.5789108 0.0946638
29.6718924 76.6692963 0.0946501
29.6892186 76.4540405 0.0945373
29.7065448 75.9550552 0.0942901
29.7238709 75.5714493 0.0941343
29.7411971 75.3614883 0.0940218
29.7585233 75.2214050 0.0939598
29.7758495 74.9446182 0.0937487
29.7931757 74.7135544 0.0934541
29.8105019 74.6550980 0.0932833
29.8278281 74.7812195 0.0933368
29.8451543 74.8849182 0.0934378
29.8624804 74.9446945 0.0935683
29.8798066 74.7656784 0.0934831
29.8971328 74.5731659 0.0933777
29.9144590 74.4883194 0.0933637
29.9317852 74.4223022 0.0932792
29.9491114 74.3984451 0.0931352
29.9664376 74.4240646 0.0930488
29.9837637 74.5426102 0.0930898
30.0010899 74.7336807 0.0931781
30.0184161 74.9062881 0.0933551
30.0357423 74.9093781 0.0934833
30.0530685 74.6623077 0.0933164
30.0703947 74.4448318 0.0931932
30.0877209 74.1745605 0.0929654
30.1050471 74.0765610 0.0928365
30.1223732 74.0615692 0.0927417
30.1396994 74.0094528 0.0926581
30.1570256 73.9172897 0.0925801
30.1743518 73.9372482 0.0926564
30.1916780 73.9769897 0.0927275
30.2090042 74.0723724 0.0927860
30.2263304 74.0520020 0.0927864
30.2436565 74.0276108 0.0928036
30.2609827 74.0167007 0.0927379
30.2783089 73.9532166 0.0925881
30.2956351 73.9408569 0.0925349
30.3129613 73.9648361 0.0925533
30.3302875 73.9027710 0.0924709
30.3476137 74.0253067 0.0925887
30.3649399 74.1276474 0.0927282
30.3822660 74.0819244 0.0926612
30.3995922 74.2429886 0.0927677
30.4169184 74.2827759 0.0928106
30.4342446 74.2974167 0.0927913
30.4515708 74.7002487 0.0929472
30.4688970 75.3350677 0.0932469
30.4862232 76.1817322 0.0937811
30.5035494 77.5716705 0.0946843
30.5208755 79.2611084 0.0957153
30.5382017 80.7256546 0.0965757
30.5555279 81.5725479 0.0971008
30.5728541 81.5645370 0.0971102
30.5901803 80.9421463 0.0967101
30.6075065 80.1383362 0.0962333
30.6248327 79.0130844 0.0955319
30.6421588 77.6768112 0.0946397
30.6594850 76.5448761 0.0938868
30.6768112 75.6319275 0.0933349
30.6941374 74.9980164 0.0929935
30.7114636 74.5068588 0.0926223
30.7287898 74.2182770 0.0924278
30.7461160 74.0362778 0.0923859
30.7634422 73.9249954 0.0923693
30.7807683 73.6759109 0.0921480
30.7980945 73.5053635 0.0920018
30.8154207 73.5313644 0.0919755
30.8327469 73.5583725 0.0919436
30.8500731 73.4879303 0.0918705
30.8673993 73.5379410 0.0919720
30.8847255 73.5849304 0.0919598
30.9020517 73.9102783 0.0921000
30.9193778 74.3674850 0.0924001
30.9367040 74.6987915 0.0926601
30.9540302 74.8878021 0.0927953
30.9713564 75.0493011 0.0929144
30.9886826 75.0138397 0.0928304
31.0060088 75.3286209 0.0929834
31.0233350 75.9500885 0.0933068
31.0406611 76.8957977 0.0938848
31.0579873 78.4049988 0.0948214
31.0753135 80.2850800 0.0958835
31.0926397 82.1512680 0.0969393
31.1099659 83.5000534 0.0978042
31.1272921 83.5357895 0.0978543
31.1446183 82.1762543 0.0970740
31.1619445 79.9539185 0.0957906
31.1792706 77.6684113 0.0943716
31.1965968 75.9440689 0.0932210
31.2139230 74.9506989 0.0925834
31.2312492 74.4407578 0.0922843
31.2485754 74.0868378 0.0920297
31.2659016 73.8067780 0.0917882
31.2832278 73.4857712 0.0915814
31.3005539 73.0390091 0.0913014
31.3178801 72.7141876 0.0911013
31.3352063 72.4255905 0.0909282
31.3525325 72.4681320 0.0910529
31.3698587 72.4546204 0.0910265
31.3871849 72.3994293 0.0909559
31.4045111 72.3182602 0.0908591
31.4218373 72.3618622 0.0908617
31.4391634 72.4497223 0.0908630
31.4564896 72.5183792 0.0908962
31.4738158 72.5817261 0.0908812
31.4911420 72.7377777 0.0909430
31.5084682 72.6437988 0.0908852
31.5257944 72.4548950 0.0908026
31.5431206 72.4349136 0.0908158
31.5604468 72.5680008 0.0909326
31.5777729 72.7173615 0.0910501
31.5950991 72.9443588 0.0912104
31.6124253 73.0891037 0.0912754
31.6297515 72.9175797 0.0911246
31.6470777 72.7122345 0.0909549
31.6644039 72.6659393 0.0908732
31.6817301 72.4569244 0.0906834
31.6990562 72.1551971 0.0904637
31.7163824 71.8044891 0.0901905
31.7337086 71.5184250 0.0900117
31.7510348 71.3598022 0.0899664
31.7683610 71.3675079 0.0900213
31.7856872 71.3270950 0.0900148
31.8030134 71.1989136 0.0899618
31.8203396 71.2351379 0.0899797
31.8376657 71.3973694 0.0900985
31.8549919 71.3721390 0.0900630
31.8723181 71.2257156 0.0898845
31.8896443 71.3297348 0.0899262
31.9069705 71.3210831 0.0898146
31.9242967 71.4051361 0.0898158
31.9416229 71.6658325 0.0899899
31.9589491 71.6220779 0.0899385
31.9762752 71.5417099 0.0899190
31.9936014 71.4367065 0.0898823
32.0109276 71.2404175 0.0897801
32.0282538 71.2834320 0.0898620
32.0455800 71.2916336 0.0899063
32.0629062 71.1004562 0.0897816
32.0802324 71.0342636 0.0897257
32.0975585 71.1045380 0.0897589
32.1148847 71.0731049 0.0896527
32.1322109 71.0754395 0.0895576
32.1495371 71.1671066 0.0895581
32.1668633 71.2132339 0.0895492
32.1841895 71.2962112 0.0895677
32.2015157 71.6304092 0.0897928
32.2188419 72.0709686 0.0900758
32.2361680 72.6881485 0.0905068
32.2534942 73.6092453 0.0911361
32.2708204 74.9694443 0.0920215
32.2881466 76.6950760 0.0931108
32.3054728 78.4429779 0.0942112
32.3227990 79.7370300 0.0949915
32.3401252 82.9784698 0.0968632
32.3574513 97.9208908 0.1057933
32.3747775 120.9431000 0.1177031
32.3921037 130.4503784 0.1223411
32.4094299 119.0995941 0.1168680
32.4267561 99.2883759 0.1052390
32.4440823 84.5566254 0.0967193
32.4614085 77.3425751 0.0929920
32.4787347 75.4489899 0.0920378
32.4960608 73.6039581 0.0908534
32.5133870 72.3164749 0.0901145
32.5307132 71.9381714 0.0899364
32.5480394 71.8676987 0.0899433
32.5653656 71.7816620 0.0898984
32.5826918 71.9439316 0.0900057
32.6000180 72.3529816 0.0902707
32.6173442 72.8922424 0.0905583
32.6346703 73.9062805 0.0911821
32.6519965 75.3566360 0.0919971
32.6693227 77.1493301 0.0929656
32.6866489 79.4116211 0.0942789
32.7039751 81.5998840 0.0955443
32.7213013 82.8940353 0.0962505
32.7386275 83.2698212 0.0964809
32.7559536 83.0132370 0.0963012
32.7732798 83.2838974 0.0964335
32.7906060 84.8515320 0.0973437
32.8079322 87.8904266 0.0991668
32.8252584 91.2226105 0.1010889
32.8425846 93.6084747 0.1025196
32.8599108 93.6374435 0.1025976
32.8772370 90.8589172 0.1010474
32.8945631 86.3594360 0.0985208
32.9118893 81.5148468 0.0956481
32.9292155 77.8115463 0.0934028
32.9465417 75.4430923 0.0919284
32.9638679 74.0481033 0.0910336
32.9811941 73.2726822 0.0904797
32.9985203 72.9349518 0.0902093
33.0158465 72.9331589 0.0901539
33.0331726 73.0026703 0.0901364
33.0504988 73.0156403 0.0901445
33.0678250 72.8381500 0.0900028
33.0851512 72.5821838 0.0898526
33.1024774 72.3484344 0.0897694
33.1198036 71.8731918 0.0894751
33.1371298 71.1658936 0.0890384
33.1544559 70.7624969 0.0888588
33.1717821 70.5194626 0.0887243
33.1891083 70.2869339 0.0885789
33.2064345 70.2070236 0.0885554
33.2237607 70.2526016 0.0886079
33.2410869 70.6399689 0.0888997
33.2584131 71.3206024 0.0893080
33.2757393 72.3323364 0.0899128
33.2930654 73.6883011 0.0907198
33.3103916 74.9028931 0.0913947
33.3277178 75.3915329 0.0916260
33.3450440 75.0186539 0.0913637
33.3623702 74.0777893 0.0907395
33.3796964 72.7993317 0.0898792
33.3970226 71.6474838 0.0891616
33.4143487 70.7812576 0.0885526
33.4316749 70.3178406 0.0882446
33.4490011 69.9046402 0.0879671
33.4663273 69.8135834 0.0879091
33.4836535 70.0951462 0.0881113
33.5009797 70.5291367 0.0883726
33.5183059 71.3196793 0.0889094
33.5356321 72.0171509 0.0894022
33.5529582 72.3377533 0.0896271
33.5702844 72.0322571 0.0894448
33.5876106 71.2995529 0.0890381
33.6049368 70.5119400 0.0885541
33.6222630 69.8806000 0.0881656
33.6395892 69.4682388 0.0879388
33.6569154 69.2347870 0.0877974
33.6742416 69.0940857 0.0876992
33.6915677 69.0117188 0.0876300
33.7088939 69.0690536 0.0876316
33.7262201 69.1515274 0.0876725
33.7435463 69.1045151 0.0875632
33.7608725 69.2851334 0.0876715
33.7781987 69.4577637 0.0877285
33.7955249 69.7147751 0.0878478
33.8128510 70.0920181 0.0880604
33.8301772 70.7030869 0.0884192
33.8475034 71.3248367 0.0887618
33.8648296 71.7827301 0.0890260
33.8821558 71.8360214 0.0890622
33.8994820 71.2043228 0.0886007
33.9168082 70.4826508 0.0881339
33.9341344 69.8820419 0.0877327
33.9514605 69.4616470 0.0874659
33.9687867 69.1470108 0.0872784
33.9861129 69.0848312 0.0872802
34.0034391 68.9868164 0.0871986
34.0207653 69.0091934 0.0872313
34.0380915 69.1277313 0.0873022
34.0554177 69.1854553 0.0873622
34.0727438 69.1257324 0.0873462
34.0900700 69.0530319 0.0872910
34.1073962 69.1900940 0.0874205
34.1247224 69.2805557 0.0874782
34.1420486 69.2635880 0.0874566
34.1593748 69.2498169 0.0874544
34.1767010 69.2483673 0.0874818
34.1940272 69.1593018 0.0874294
34.2113533 69.2081604 0.0874632
34.2286795 69.3765030 0.0875828
34.2460057 69.6727600 0.0877539
34.2633319 70.2837753 0.0881572
34.2806581 71.2466583 0.0888025
34.2979843 72.0814438 0.0891915
34.3153105 73.4482498 0.0899973
34.3326367 75.2306519 0.0910601
34.3499628 77.1004028 0.0921646
34.3672890 78.5999374 0.0930757
34.3846152 78.7744522 0.0931726
34.4019414 77.7076416 0.0925190
34.4192676 75.7082138 0.0912740
34.4365938 73.6127930 0.0899491
34.4539200 72.2977676 0.0891454
34.4712461 71.5345535 0.0886441
34.4885723 71.3252716 0.0885227
34.5058985 71.3395004 0.0888053
34.5232247 71.0328293 0.0888213
34.5405509 70.9205933 0.0890261
34.5578771 71.0431595 0.0897243
34.5752033 71.4885101 0.0908127
34.5925295 72.6552887 0.0922456
34.6098556 74.3246460 0.0939283
34.6271818 75.5246201 0.0952019
34.6445080 75.8262177 0.0958647
34.6618342 75.0344925 0.0957589
34.6791604 73.6212997 0.0952136
34.6964866 72.0808182 0.0945855
34.7138128 70.8119812 0.0941195
34.7311390 69.9720764 0.0939180
34.7484651 69.2187653 0.0937215
34.7657913 68.6342010 0.0936365
34.7831175 68.3438416 0.0937809
34.8004437 68.1129227 0.0939099
34.8177699 67.9994431 0.0941075
34.8350961 67.9573822 0.0943708
34.8524223 67.9878387 0.0946463
34.8697484 68.2302399 0.0951051
34.8870746 68.4906387 0.0955534
34.9044008 68.7732849 0.0960479
34.9217270 68.9769897 0.0964516
34.9390532 69.1407089 0.0967937
34.9563794 69.2112656 0.0971119
34.9737056 69.0883255 0.0972858
34.9910318 68.6557465 0.0972044
35.0083579 68.1933365 0.0971423
35.0256841 67.8920364 0.0971563
35.0430103 67.7447357 0.0973160
35.0603365 67.5949554 0.0974222
35.0776627 67.4733047 0.0975458
35.0949889 67.3546448 0.0976891
35.1123151 67.2588730 0.0978514
35.1296412 67.2139740 0.0981006
35.1469674 67.1880341 0.0983151
35.1642936 67.0657501 0.0984264
35.1816198 67.0433731 0.0986454
35.1989460 67.2897491 0.0990876
35.2162722 67.4324188 0.0993963
35.2335984 67.4450684 0.0996302
35.2509246 67.2731323 0.0997257
35.2682507 67.1322327 0.0998687
35.2855769 66.9821854 0.0999601
35.3029031 66.7993317 0.0999945
35.3202293 66.7920914 0.1002434
35.3375555 66.8600540 0.1005398
35.3548817 66.9842758 0.1008499
35.3722079 67.0358429 0.1010569
35.3895341 67.0853271 0.1013065
35.4068602 67.1185379 0.1015879
35.4241864 67.0499649 0.1017242
35.4415126 66.9948578 0.1018997
35.4588388 66.9659119 0.1020810
35.4761650 67.0432816 0.1023646
35.4934912 67.1926041 0.1026788
35.5108174 67.4218521 0.1030419
35.5281435 67.8113632 0.1035677
35.5454697 68.4204483 0.1042870
35.5627959 68.9392242 0.1048537
35.5801221 69.4852753 0.1054881
35.5974483 69.6887894 0.1058395
35.6147745 69.5478821 0.1059903
35.6321007 69.0661621 0.1058133
35.6494269 68.4494781 0.1054882
35.6667530 68.0896683 0.1054532
35.6840792 67.7575836 0.1054401
35.7014054 67.3745575 0.1053312
35.7187316 67.0738144 0.1052828
35.7360578 66.7866821 0.1052511
35.7533840 66.8896484 0.1055718
35.7707102 67.0550003 0.1058933
35.7880364 67.2225723 0.1062301
35.8053625 67.5377579 0.1067049
35.8226887 67.8444214 0.1071362
35.8400149 68.3291397 0.1077173
35.8573411 69.3091049 0.1086998
35.8746673 70.7304306 0.1100252
35.8919935 72.7148895 0.1117259
35.9093197 75.7824631 0.1142846
35.9266458 79.4567261 0.1172680
35.9439720 83.0292892 0.1201769
35.9612982 85.4175339 0.1221355
35.9786244 85.6775360 0.1225894
35.9959506 83.3738174 0.1211293
36.0132768 79.5402908 0.1184631
36.0306030 75.5585785 0.1156517
36.0479292 72.3129959 0.1133258
36.0652553 70.1106873 0.1117994
36.0825815 68.7173004 0.1109053
36.0999077 67.8954849 0.1104300
36.1172339 67.4890060 0.1103496
36.1345601 66.9781876 0.1100907
36.1518863 66.6514282 0.1100616
36.1692125 66.3662415 0.1100131
36.1865386 66.3117828 0.1102118
36.2038648 66.2357941 0.1103517
36.2211910 66.1946564 0.1105352
36.2385172 66.1763153 0.1107161
36.2558434 66.1324615 0.1108824
36.2731696 66.1076431 0.1110730
36.2904958 66.0017853 0.1111270
36.3078220 66.0638123 0.1114182
36.3251481 66.1507034 0.1116874
36.3424743 66.5068741 0.1122123
36.3598005 66.7385178 0.1125810
36.3771267 67.0135193 0.1130903
36.3944529 67.1364059 0.1133650
36.4117791 66.9797211 0.1134355
36.4291053 66.7739944 0.1135139
36.4464315 66.4432831 0.1134218
36.4637576 66.1325607 0.1133257
36.4810838 66.0434723 0.1134912
36.4984100 65.7725296 0.1134547
36.5157362 65.5405502 0.1134649
36.5330624 65.3380280 0.1134505
36.5503886 65.3457489 0.1136956
36.5677148 65.4130783 0.1139645
36.5850409 65.4128647 0.1141820
36.6023671 65.3835068 0.1143465
36.6196933 65.3304062 0.1144863
36.6370195 65.3372803 0.1147405
36.6543457 65.3863449 0.1149931
36.6716719 65.3158875 0.1151201
36.6889981 65.1388626 0.1151704
36.7063243 65.0424500 0.1153150
36.7236504 65.1324844 0.1155909
36.7409766 65.3984680 0.1160396
36.7583028 65.3268814 0.1161841
36.7756290 65.1016006 0.1162092
36.7929552 65.0571442 0.1163687
36.8102814 65.1442108 0.1166716
36.8276076 65.3603439 0.1170541
36.8449338 65.5937119 0.1174961
36.8622599 65.6568604 0.1177732
36.8795861 65.6169281 0.1179575
36.8969123 65.5245895 0.1180491
36.9142385 65.5803909 0.1183447
36.9315647 65.7497940 0.1187023
36.9488909 65.9997864 0.1191368
36.9662171 66.0855637 0.1194668
36.9835432 65.8072968 0.1193719
37.0008694 65.6871185 0.1194831
37.0181956 65.7324219 0.1197528
37.0355218 65.8468094 0.1200890
37.0528480 65.9553909 0.1203940
37.0701742 66.1174240 0.1207635
37.0875004 66.4458160 0.1212343
37.1048266 67.0399017 0.1220690
37.1221527 67.4314499 0.1226409
37.1394789 67.8626022 0.1232604
37.1568051 68.0653839 0.1236495
37.1741313 67.8031693 0.1236352
37.1914575 67.4029083 0.1234849
37.2087837 66.9692993 0.1233698
37.2261099 66.5583649 0.1231416
37.2434360 66.4801559 0.1233277
37.2607622 66.3198242 0.1233763
37.2780884 66.4127197 0.1237398
37.2954146 66.5399246 0.1240603
37.3127408 66.6312180 0.1244220
37.3300670 66.5609207 0.1245283
37.3473932 66.5494690 0.1247680
37.3647194 66.4528580 0.1249232
37.3820455 66.1966553 0.1248597
37.3993717 66.2277527 0.1251851
37.4166979 66.2035522 0.1253867
37.4340241 66.0563965 0.1254198
37.4513503 66.1349182 0.1257805
37.4686765 66.0932617 0.1259755
37.4860027 65.7450409 0.1258022
37.5033289 65.7964325 0.1261565
37.5206550 65.7885895 0.1263821
37.5379812 65.6190796 0.1264308
37.5553074 65.5762024 0.1266268
37.5726336 65.7042465 0.1269649
37.5899598 65.9751358 0.1274868
37.6072860 66.1014557 0.1278381
37.6246122 66.0216293 0.1280344
37.6419383 65.7623062 0.1279872
37.6592645 65.6407776 0.1281148
37.6765907 65.5377808 0.1282399
37.6939169 65.4542847 0.1283893
37.7112431 65.5454788 0.1287290
37.7285693 65.6392517 0.1290860
37.7458955 65.4800568 0.1291470
37.7632217 65.4342422 0.1293506
37.7805478 65.7196045 0.1299246
37.7978740 65.7409363 0.1301672
37.8152002 65.6209869 0.1302495
37.8325264 65.6545410 0.1305400
37.8498526 65.6748810 0.1308298
37.8671788 65.5607834 0.1309490
37.8845050 65.4840164 0.1311335
37.9018312 65.4245529 0.1313083
37.9191573 65.4951630 0.1316404
37.9364835 65.5330353 0.1319052
37.9538097 65.4467392 0.1320550
37.9711359 65.2561035 0.1320947
37.9884621 65.2950516 0.1323714
38.0057883 65.4400940 0.1328153
38.0231145 65.3399506 0.1329409
38.0404406 65.3798752 0.1332388
38.0577668 65.2854156 0.1333916
38.0750930 65.2442017 0.1335988
38.0924192 65.3414688 0.1340160
38.1097454 65.2245712 0.1341202
38.1270716 65.4105682 0.1345881
38.1443978 65.6946259 0.1351639
38.1617240 65.7956390 0.1355593
38.1790501 65.8054733 0.1358175
38.1963763 65.9522476 0.1361836
38.2137025 66.2802811 0.1368390
38.2310287 66.3011093 0.1370932
38.2483549 66.1419144 0.1371513
38.2656811 66.1504517 0.1374833
38.2830073 66.1602783 0.1377506
38.3003334 66.2092896 0.1380544
38.3176596 66.4930496 0.1386450
38.3349858 66.5191116 0.1389374
38.3523120 66.2676086 0.1388904
38.3696382 66.2655563 0.1391861
38.3869644 66.2835388 0.1394853
38.4042906 66.4637909 0.1399628
38.4216168 66.5270386 0.1402852
38.4389429 66.4937439 0.1405318
38.4562691 66.6985626 0.1410548
38.4735953 66.9958038 0.1416627
38.4909215 67.0362473 0.1419834
38.5082477 67.0038757 0.1421981
38.5255739 66.9661865 0.1424551
38.5429001 66.5209885 0.1422564
38.5602263 66.1261368 0.1420852
38.5775524 65.8924484 0.1421455
38.5948786 65.6327667 0.1421361
38.6122048 65.3894501 0.1421300
38.6295310 65.2011642 0.1422090
38.6468572 65.0775070 0.1423810
38.6641834 65.1263199 0.1427993
38.6815096 65.0402374 0.1430109
38.6988357 64.9014664 0.1431325
38.7161619 64.9893417 0.1435147
38.7334881 65.1335297 0.1439963
38.7508143 65.1344757 0.1442354
38.7681405 65.3298416 0.1447188
38.7854667 65.6544266 0.1453832
38.8027929 65.6596375 0.1456645
38.8201191 65.6486511 0.1459543
38.8374452 65.5649948 0.1462026
38.8547714 65.2261200 0.1461435
38.8720976 65.1003113 0.1462326
38.8894238 65.1837845 0.1466749
38.9067500 65.0827484 0.1468140
38.9240762 64.8964081 0.1468789
38.9414024 64.8516693 0.1471111
38.9587286 65.0496597 0.1477321
38.9760547 65.0693665 0.1481085
38.9933809 65.1216965 0.1484344
39.0107071 65.1265945 0.1488416
39.0280333 64.8655930 0.1487510
39.0453595 64.9792709 0.1492375
39.0626857 65.1121368 0.1496717
39.0800119 65.2306671 0.1501542
39.0973380 65.2876053 0.1505772
39.1146642 65.4296722 0.1510579
39.1319904 65.5431747 0.1515373
39.1493166 65.7596207 0.1520957
39.1666428 65.9023590 0.1526141
39.1839690 65.9874725 0.1529770
39.2012952 66.5085526 0.1539372
39.2186214 66.9090195 0.1548159
39.2359475 66.7877502 0.1548762
39.2532737 67.0289459 0.1556083
39.2705999 67.2253265 0.1560788
39.2879261 67.3453217 0.1567008
39.3052523 66.9402542 0.1565004
39.3225785 66.5571671 0.1563342
39.3399047 66.2040253 0.1562763
39.3572308 65.9382706 0.1562875
39.3745570 65.8619843 0.1566058
39.3918832 65.8138962 0.1568150
39.4092094 65.8773880 0.1572918
39.4265356 65.7825928 0.1574939
39.4438618 65.8966675 0.1579724
39.4611880 65.8140640 0.1582346
39.4785142 65.7826004 0.1585778
39.4958403 65.8627701 0.1590791
39.5131665 66.1146088 0.1597857
39.5304927 66.2210617 0.1602326
39.5478189 66.0165558 0.1603018
39.5651451 66.1068192 0.1607824
39.5824713 66.2537766 0.1613813
39.5997975 66.4132996 0.1620155
39.6171237 66.5641098 0.1625124
39.6344498 66.7909546 0.1631433
39.6517760 66.8630447 0.1635691
39.6691022 67.0603485 0.1642227
39.6864284 67.3497391 0.1649744
39.7037546 67.7858582 0.1659133
39.7210808 68.6136703 0.1672572
39.7384070 69.7715759 0.1689968
39.7557331 71.9623260 0.1718998
39.7730593 77.5087509 0.1788207
39.7903855 90.5190659 0.1932600
39.8077117 121.5669479 0.2239735
39.8250379 177.6989746 0.2741871
39.8423641 206.8113403 0.2974586
39.8596903 168.3319397 0.2671306
39.8770165 115.7616959 0.2207785
39.8943426 89.8477783 0.1953139
39.9116688 79.5962143 0.1847150
39.9289950 75.0498276 0.1798912
39.9463212 72.5786819 0.1774163
39.9636474 72.0701523 0.1771534
39.9809736 74.4711304 0.1808439
39.9982998 74.0038681 0.1805688
40.0156260 72.1186371 0.1783431
40.0329521 75.5403366 0.1827527
40.0502783 87.3633194 0.1972184
40.0676045 110.3512344 0.2221294
40.0849307 138.3067322 0.2507613
40.1022569 144.4829407 0.2578624
40.1195831 115.0495911 0.2287026
40.1369093 85.5430756 0.1972172
40.1542354 73.4519501 0.1833772
40.1715616 69.7436295 0.1796354
40.1888878 68.4011383 0.1784136
40.2062140 67.8598175 0.1780716
40.2235402 67.6334915 0.1783869
40.2408664 67.4703140 0.1785007
40.2581926 67.1024780 0.1784528
40.2755188 66.9882050 0.1790008
40.2928449 66.8626099 0.1790415
40.3101711 66.7792130 0.1794682
40.3274973 66.5923004 0.1797078
40.3448235 66.3908539 0.1797908
40.3621497 66.4990692 0.1806232
40.3794759 66.3796387 0.1807469
40.3968021 66.2417297 0.1810501
40.4141282 66.4972229 0.1821313
40.4314544 66.6587906 0.1826059
40.4487806 66.5847168 0.1830722
40.4661068 66.3654480 0.1833411
40.4834330 66.1636581 0.1833301
40.5007592 66.1792831 0.1840594
40.5180854 65.9978943 0.1841713
40.5354116 65.8490906 0.1844143
40.5527377 65.6901474 0.1849489
40.5700639 65.3419876 0.1847214
40.5873901 65.0788956 0.1848952
40.6047163 65.2387085 0.1858232
40.6220425 65.6737442 0.1867680
40.6393687 65.8735657 0.1876969
40.6566949 65.6521606 0.1879071
40.6740211 65.5307007 0.1880963
40.6913472 65.4998398 0.1887603
40.7086734 65.6379929 0.1894990
40.7259996 65.6045456 0.1898972
40.7433258 65.2093430 0.1900120
40.7606520 65.0934448 0.1902626
40.7779782 65.4057388 0.1913193
40.7953044 65.3742599 0.1919224
40.8126305 65.3957825 0.1923932
40.8299567 65.4007034 0.1928674
40.8472829 65.4654922 0.1937028
40.8646091 65.4499512 0.1941238
40.8819353 65.2911224 0.1944506
40.8992615 65.0696106 0.1947978
40.9165877 65.1778564 0.1954183
40.9339139 65.4442749 0.1965431
40.9512400 65.1891556 0.1966683
40.9685662 65.2772903 0.1973374
40.9858924 65.4069824 0.1982763
41.0032186 65.3542023 0.1987454
41.0205448 65.5291367 0.1996471
41.0378710 65.4286499 0.2001308
41.0551972 65.5163498 0.2007457
41.0725234 66.0743637 0.2024472
41.0898495 65.8202667 0.2026062
41.1071757 65.5222168 0.2027498
41.1245019 65.2586441 0.2029698
41.1418281 65.5159607 0.2040733
41.1591543 65.7617188 0.2050655
41.1764805 65.9496460 0.2060990
41.1938067 66.2109222 0.2071110
41.2111328 66.3585892 0.2079351
41.2284590 66.6305008 0.2092178
41.2457852 66.8871994 0.2102886
41.2631114 66.8442001 0.2107718
41.2804376 66.9670029 0.2119153
41.2977638 66.9257889 0.2124188
41.3150900 66.7407608 0.2126496
41.3324162 66.4162827 0.2131788
41.3497423 65.9088211 0.2128565
41.3670685 65.9738083 0.2135059
41.3843947 66.1505814 0.2148553
41.4017209 66.3613663 0.2159445
41.4190471 66.3711548 0.2161964
41.4363733 67.1189194 0.2186396
41.4536995 67.9551849 0.2207820
41.4710256 68.8264313 0.2226254
41.4883518 68.9495163 0.2238973
41.5056780 68.5047607 0.2241475
41.5230042 68.0389786 0.2236646
41.5403304 67.5206299 0.2237504
41.5576566 67.2962189 0.2247483
41.5749828 66.5787811 0.2237173
41.5923090 65.9305344 0.2232772
41.6096351 65.9253769 0.2248013
41.6269613 65.9923553 0.2251504
41.6442875 66.1649246 0.2260538
41.6616137 65.9874573 0.2271586
41.6789399 66.1940079 0.2284172
41.6962661 66.0425873 0.2281880
41.7135923 66.2406082 0.2301942
41.7309185 66.2426758 0.2312320
41.7482446 66.6285934 0.2321128
41.7655708 66.6756134 0.2332432
41.7828970 66.4825287 0.2344366
41.8002232 66.4814758 0.2348578
41.8175494 66.3054657 0.2351405
41.8348756 66.0615921 0.2364533
41.8522018 66.1711197 0.2375095
41.8695279 65.9620514 0.2372051
41.8868541 65.9854507 0.2389988
41.9041803 66.0571136 0.2404235
41.9215065 66.2461700 0.2409927
41.9388327 66.1986084 0.2418165
41.9561589 66.3242874 0.2438661
41.9734851 66.4811020 0.2448275
41.9908113 66.3155136 0.2449290
42.0081374 66.1719666 0.2464116
42.0254636 66.0158691 0.2474207
42.0427898 65.8692093 0.2473186
42.0601160 65.9073563 0.2487247
42.0774422 65.4139633 0.2494995
42.0947684 65.5849838 0.2507219
42.1120946 65.8115463 0.2515666
42.1294207 66.0669022 0.2538951
42.1467469 65.3670807 0.2537024
42.1640731 64.8897400 0.2533383
42.1813993 65.2049179 0.2552279
42.1987255 65.3434219 0.2572173
42.2160517 65.5298538 0.2587243
42.2333779 65.5614471 0.2594175
42.2507041 65.6835098 0.2612111
42.2680302 65.8420258 0.2629973
42.2853564 66.5359497 0.2655739
42.3026826 66.8118210 0.2671400
42.3200088 66.9574509 0.2691410
42.3373350 66.5775528 0.2695258
42.3546612 66.2293777 0.2700257
42.3719874 65.8801346 0.2703744
42.3893136 66.2375107 0.2728074
42.4066397 66.7517166 0.2753763
42.4239659 67.0765076 0.2774729
42.4412921 66.9020233 0.2784389
42.4586183 66.3799820 0.2785344
42.4759445 66.1987152 0.2796812
42.4932707 66.3424835 0.2819393
42.5105969 66.0190201 0.2824313
42.5279230 66.3817978 0.2844814
42.5452492 67.0382843 0.2878239
42.5625754 67.4344025 0.2907760
42.5799016 67.6434097 0.2920433
42.5972278 68.0390930 0.2940985
42.6145540 68.2571030 0.2971417
42.6318802 68.5158997 0.2998664
42.6492064 69.0063400 0.3020310
42.6665325 68.5527344 0.3019918
42.6838587 68.0402832 0.3037089
42.7011849 67.9614639 0.3060895
42.7185111 67.7983932 0.3061489
42.7358373 67.8386536 0.3073529
42.7531635 68.2953491 0.3118358
42.7704897 68.8101425 0.3160300
42.7878159 69.1539001 0.3171787
42.8051420 69.9014664 0.3196898
42.8224682 70.8141937 0.3255246
42.8397944 71.0289230 0.3293983
42.8571206 71.3964386 0.3310973
42.8744468 71.2097855 0.3312201
42.8917730 70.6992264 0.3335706
42.9090992 70.7357330 0.3383077
42.9264253 70.2773361 0.3382347
42.9437515 68.7541428 0.3340540
42.9610777 68.1426468 0.3359925
42.9784039 67.8308258 0.3406454
42.9957301 66.9749908 0.3405516
43.0130563 66.6793518 0.3394045
43.0303825 66.5166321 0.3412530
43.0477087 66.3225784 0.3462227
43.0650348 66.1066818 0.3495193
43.0823610 66.1601944 0.3496254
43.0996872 66.1724472 0.3504627
43.1170134 66.3175507 0.3561442
43.1343396 66.0362167 0.3608377
43.1516658 66.2265167 0.3631279
43.1689920 65.7715073 0.3613469
43.1863181 65.8985825 0.3654346
43.2036443 66.4702759 0.3736053
43.2209705 66.3122406 0.3770524
43.2382967 65.9219894 0.3762339
43.2556229 65.7704086 0.3776778
43.2729491 65.5548325 0.3825068
43.2902753 65.8910141 0.3902952
43.3076015 66.5714111 0.3953201
43.3249276 66.7833633 0.3964617
43.3422538 66.2934570 0.3981031
43.3595800 66.1100922 0.4045894
43.3769062 65.8291702 0.4097553
43.3942324 66.4651489 0.4149190
43.4115586 66.6016922 0.4171264
43.4288848 65.6916962 0.4188378
43.4462110 66.0849228 0.4276062
43.4635371 66.7163391 0.4345811
43.4808633 66.5127335 0.4382437
43.4981895 66.3491898 0.4415025
43.5155157 66.2947845 0.4474283
43.5328419 66.0017548 0.4541177
43.5501681 66.4306488 0.4614617
43.5674943 66.2117691 0.4654831
43.5848204 66.2206573 0.4710172
43.6021466 66.2493439 0.4775937
43.6194728 67.4177094 0.4905688
43.6367990 67.3022156 0.4964630
43.6541252 66.4311676 0.5018092
43.6714514 66.8561325 0.5126521
43.6887776 66.0799561 0.5155856
43.7061038 65.8621292 0.5219975
43.7234299 66.0313492 0.5299126
43.7407561 65.8243027 0.5412744
43.7580823 66.9676361 0.5631421
43.7754085 67.3074188 0.5748932
43.7927347 67.5780411 0.5826121
43.8100609 66.8749390 0.5824600
43.8273871 67.2489395 0.5959614
43.8447133 68.3856430 0.6270695
43.8620394 68.5742340 0.6534169
43.8793656 67.6302185 0.6618636
43.8966918 67.7133713 0.6651521
43.9140180 67.4682999 0.6694726
43.9313442 66.6699600 0.6885661
43.9486704 66.4560318 0.7279097
43.9659966 67.7535706 0.7770896
43.9833227 69.1671677 0.8036106
44.0006489 68.3275833 0.8025699
44.0179751 67.1411896 0.8133174
44.0353013 66.8435516 0.8538503
44.0526275 68.3026047 0.9336086
44.0699537 70.1792908 1.0281965
44.0872799 69.6440659 1.0699137
44.1046061 70.9851761 1.1121589
44.1219322 72.3138733 1.1892982
44.1392584 72.5991592 1.3103540
44.1565846 73.3406906 1.5123847
44.1739108 73.4790039 1.8019118
44.1912370 75.6274338 2.2279718
44.2085632 79.9947205 2.8050985
44.2258894 80.0765839 3.3203340
44.2432155 74.4219055 3.7580433
44.2605417 76.0464859 5.0668612
44.2778679 71.6231918 8.6352339
