# 2theta(deg)    Intensity    Error
0.9797269 121.3815155 4.0281186
0.9970531 118.0964890 1.9721986
1.0143793 115.5119324 1.5241295
1.0317055 113.5366440 1.2940751
1.0490317 115.1273651 1.0548388
1.0663578 116.4403839 0.9290162
1.0836840 115.8174591 0.8272183
1.1010102 114.8674240 0.7691808
1.1183364 113.9851990 0.7346200
1.1356626 112.6330414 0.6908187
1.1529888 111.8138962 0.6653619
1.1703150 110.3085632 0.6527054
1.1876411 108.5446548 0.6241175
1.2049673 107.4908676 0.6047974
1.2222935 106.4494781 0.5954878
1.2396197 105.2656097 0.5723788
1.2569459 104.7850418 0.5566310
1.2742721 104.1945190 0.5467657
1.2915983 103.4964447 0.5250617
1.3089245 103.1114883 0.5074582
1.3262506 102.9206161 0.5019261
1.3435768 102.7568054 0.4898234
1.3609030 102.1355896 0.4843433
1.3782292 101.0182190 0.4852248
1.3955554 100.1485138 0.4736320
1.4128816 99.2058411 0.4674432
1.4302078 98.6411209 0.4705750
1.4475340 98.3078079 0.4608763
1.4648601 97.8091049 0.4559332
1.4821863 96.8070526 0.4571213
1.4995125 95.9853897 0.4473211
1.5168387 95.4724121 0.4425471
1.5341649 94.9005890 0.4443585
1.5514911 95.1407242 0.4384160
1.5688173 94.6607056 0.4316886
1.5861434 93.7342911 0.4338347
1.6034696 93.1131134 0.4250744
1.6207958 92.5449600 0.4184374
1.6381220 92.3928833 0.4214227
1.6554482 92.7786331 0.4157777
1.6727744 92.8012085 0.4105733
1.6901006 92.1436310 0.4128141
1.7074268 91.2403488 0.4052963
1.7247529 90.6586990 0.3990621
1.7420791 90.3841324 0.4019348
1.7594053 90.2411041 0.3962227
1.7767315 90.0765610 0.3911473
1.7940577 89.9554901 0.3944826
1.8113839 89.7687607 0.3894181
1.8287101 89.4597092 0.3838633
1.8460362 89.2828217 0.3873389
1.8633624 89.0150909 0.3824729
1.8806886 88.8259201 0.3771212
1.8980148 88.7338409 0.3804981
1.9153410 88.4313202 0.3756754
1.9326672 88.0682144 0.3702368
1.9499934 87.4949875 0.3713354
1.9673196 87.1822433 0.3667928
1.9846457 86.9396820 0.3613725
2.0019719 86.8720016 0.3641467
2.0192981 86.7802277 0.3607687
2.0366243 86.7068481 0.3553595
2.0539505 86.5189896 0.3577777
2.0712767 86.4425049 0.3549983
2.0886029 86.1911697 0.3491081
2.1059291 86.0225677 0.3519977
2.1232552 85.7178192 0.3490840
2.1405814 85.4740067 0.3440499
2.1579076 85.3951721 0.3469828
2.1752338 85.5519714 0.3450399
2.1925600 85.6981888 0.3402204
2.2098862 85.5897827 0.3427491
2.2272124 85.6202393 0.3410212
2.2445385 85.1652603 0.3345658
2.2618647 84.5970230 0.3357420
2.2791909 84.5183716 0.3340975
2.2965171 84.5473251 0.3290222
2.3138433 84.6735611 0.3314096
2.3311695 84.5620193 0.3299855
2.3484957 84.1677170 0.3241275
2.3658219 84.1289444 0.3260520
2.3831480 84.2400436 0.3251653
2.4004742 84.2978287 0.3202612
2.4178004 84.3216934 0.3220353
2.4351266 84.0833054 0.3216397
2.4524528 83.4812927 0.3153419
2.4697790 83.0872421 0.3164612
2.4871052 83.2788162 0.3166205
2.5044314 83.3713150 0.3123852
2.5217575 82.8563995 0.3124303
2.5390837 82.7148590 0.3120965
2.5564099 82.7987366 0.3074102
2.5737361 82.8707962 0.3089994
2.5910623 82.7885590 0.3086717
2.6083885 82.8989639 0.3043746
2.6257147 82.9531021 0.3051929
2.6430408 82.8736267 0.3054748
2.6603670 82.4341660 0.2994671
2.6776932 82.4836502 0.3006737
2.6950194 82.5400162 0.3008564
2.7123456 82.7347031 0.2967537
2.7296718 82.9211655 0.2981808
2.7469980 82.6761322 0.2981502
2.7643242 82.2575226 0.2929941
2.7816503 82.1709671 0.2935080
2.7989765 82.3908768 0.2946354
2.8163027 82.5114899 0.2910201
2.8336289 82.4704437 0.2910946
2.8509551 82.2726288 0.2914091
2.8682813 82.0477753 0.2872514
2.8856075 81.6689987 0.2867532
2.9029336 81.5163803 0.2875107
2.9202598 81.6041183 0.2838660
2.9375860 81.4111099 0.2832778
2.9549122 81.3168182 0.2840474
2.9722384 81.2355118 0.2797030
2.9895646 81.2212219 0.2795243
3.0068908 81.0862732 0.2804361
3.0242170 80.9824829 0.2767672
3.0415431 81.0150146 0.2765815
3.0588693 81.1118546 0.2776904
3.0761955 81.4465485 0.2749891
3.0935217 81.5618439 0.2746181
3.1108479 81.5466614 0.2757850
3.1281741 81.5047836 0.2727535
3.1455003 81.3986359 0.2720006
3.1628265 81.3183746 0.2733940
3.1801526 81.0584259 0.2701075
3.1974788 80.7782669 0.2686897
3.2148050 80.7025070 0.2701695
3.2321312 80.5236588 0.2669649
3.2494574 80.6088943 0.2659315
3.2667836 80.8886185 0.2678042
3.2841098 81.0055008 0.2649737
3.3014359 81.0475540 0.2639510
3.3187621 80.9620438 0.2653473
3.3360883 80.9053955 0.2627544
3.3534145 80.7969971 0.2611600
3.3707407 80.8245621 0.2626035
3.3880669 81.0403976 0.2605008
3.4053931 81.1564484 0.2592033
3.4227193 81.1250687 0.2607641
3.4400454 81.1269531 0.2586921
3.4573716 81.2275620 0.2576185
3.4746978 81.2042313 0.2593565
3.4920240 81.2712021 0.2573945
3.5093502 81.3544388 0.2556967
3.5266764 81.3517838 0.2572711
3.5440026 81.4104919 0.2556678
3.5613288 81.4389038 0.2537578
3.5786549 81.4157867 0.2554397
3.5959811 81.4504929 0.2538481
3.6133073 81.4814377 0.2518140
3.6306335 81.6741486 0.2538676
3.6479597 81.8683777 0.2525575
3.6652859 81.8647385 0.2501978
3.6826121 81.5756760 0.2513488
3.6999382 81.4936829 0.2500711
3.7172644 81.6579895 0.2477249
3.7345906 81.8017654 0.2495665
3.7519168 81.8759842 0.2491159
3.7692430 81.4789810 0.2457841
3.7865692 81.2502441 0.2470728
3.8038954 81.3470535 0.2464402
3.8212216 81.5702667 0.2443440
3.8385477 81.5762558 0.2455807
3.8558739 81.6793900 0.2454859
3.8732001 81.6504211 0.2428252
3.8905263 81.6875000 0.2442579
3.9078525 82.0231705 0.2446072
3.9251787 82.1217117 0.2419024
3.9425049 82.0956345 0.2428021
3.9598310 82.2481918 0.2427959
3.9771572 82.5857391 0.2403920
3.9944834 82.8683472 0.2421116
4.0118096 82.7749710 0.2417315
4.0291358 83.0169449 0.2394928
4.0464620 83.1030884 0.2406269
4.0637882 82.8753586 0.2404077
4.0811144 82.5370789 0.2369701
4.0984405 82.3458710 0.2373432
4.1157667 82.3945999 0.2378933
4.1330929 82.4998093 0.2354943
4.1504191 82.7448502 0.2365170
4.1677453 82.9111786 0.2373755
4.1850715 83.0640411 0.2349967
4.2023977 83.5371094 0.2361618
4.2197239 83.8169250 0.2372682
4.2370500 83.8494720 0.2347655
4.2543762 83.8119049 0.2347069
4.2717024 83.7509003 0.2356801
4.2890286 83.6757889 0.2330439
4.3063548 83.5094910 0.2327945
4.3236810 83.4119339 0.2334466
4.3410072 83.7611084 0.2315754
4.3583333 84.1382675 0.2318148
4.3756595 84.0890274 0.2326682
4.3929857 84.1213837 0.2304129
4.4103119 84.2206345 0.2301236
4.4276381 84.2734299 0.2313689
4.4449643 84.6688766 0.2300515
4.4622905 85.0434418 0.2299647
4.4796167 85.1701126 0.2312825
4.4969428 85.1938553 0.2294632
4.5142690 85.2056580 0.2285643
4.5315952 85.0835037 0.2299051
4.5489214 84.7973709 0.2277828
4.5662476 84.6477127 0.2265260
4.5835738 84.7489777 0.2283229
4.6009000 84.8839722 0.2270173
4.6182262 85.2341690 0.2261694
4.6355523 85.6533813 0.2281397
4.6528785 85.8791656 0.2270952
4.6702047 85.7130737 0.2252223
4.6875309 85.5091629 0.2265398
4.7048571 85.5754700 0.2255186
4.7221833 85.6309204 0.2237054
4.7395095 85.6656876 0.2253329
4.7568356 85.8557892 0.2247230
4.7741618 85.8362350 0.2225671
4.7914880 85.9393997 0.2240446
4.8088142 86.2373047 0.2239396
4.8261404 86.4846344 0.2222333
4.8434666 86.5603561 0.2236703
4.8607928 86.5579376 0.2234447
4.8781190 86.6195068 0.2212935
4.8954451 86.9530258 0.2228498
4.9127713 87.2203445 0.2232558
4.9300975 87.0912933 0.2206451
4.9474237 86.9195709 0.2213530
4.9647499 86.9755554 0.2216787
4.9820761 87.1885529 0.2198647
4.9994023 87.4740448 0.2209460
5.0167284 87.6870880 0.2215220
5.0340546 87.8668747 0.2193009
5.0513808 88.0439835 0.2199698
5.0687070 88.0071716 0.2202416
5.0860332 88.0979614 0.2183414
5.1033594 88.2676697 0.2188369
5.1206856 88.5904846 0.2199518
5.1380118 88.9943008 0.2184197
5.1553379 89.2732773 0.2188867
5.1726641 89.1978683 0.2193428
5.1899903 89.1410599 0.2173670
5.2073165 89.2974548 0.2175523
5.2246427 89.5886078 0.2189268
5.2419689 89.7395554 0.2173652
5.2592951 89.9868011 0.2173946
5.2766213 90.2567825 0.2187344
5.2939474 90.3453674 0.2172533
5.3112736 90.4710159 0.2168099
5.3285998 90.6312408 0.2180453
5.3459260 90.8289490 0.2169335
5.3632522 90.8228149 0.2162026
5.3805784 90.9732361 0.2175428
5.3979046 91.2198486 0.2164370
5.4152307 91.6326752 0.2158590
5.4325569 91.7157288 0.2170032
5.4498831 91.5772629 0.2156678
5.4672093 91.7981873 0.2148452
5.4845355 92.0314255 0.2163236
5.5018617 92.2433319 0.2158912
5.5191879 92.3701935 0.2145023
5.5365141 92.5033646 0.2159380
5.5538402 92.6548767 0.2153589
5.5711664 92.9100037 0.2140869
5.5884926 92.9574203 0.2151066
5.6058188 93.0047684 0.2149835
5.6231450 93.2097473 0.2136570
5.6404712 93.4458466 0.2148311
5.6577974 93.6583405 0.2149633
5.6751236 93.8913956 0.2135274
5.6924497 94.0890656 0.2144294
5.7097759 94.2987366 0.2147276
5.7271021 94.4258041 0.2131363
5.7444283 94.4127960 0.2137170
5.7617545 94.6944275 0.2143167
5.7790807 95.0888748 0.2129624
5.7964069 95.4122849 0.2136534
5.8137330 95.6840973 0.2142381
5.8310592 95.8643036 0.2126026
5.8483854 96.0318069 0.2130820
5.8657116 96.1151352 0.2137599
5.8830378 96.3638992 0.2124119
5.9003640 96.8064270 0.2128274
5.9176902 97.1280441 0.2139187
5.9350164 97.1718292 0.2122574
5.9523425 97.1630630 0.2121194
5.9696687 97.0608215 0.2127391
5.9869949 97.2860031 0.2116478
6.0043211 97.6695404 0.2118360
6.0216473 97.9130096 0.2130116
6.0389735 98.2951813 0.2121643
6.0562997 98.9548950 0.2122250
6.0736258 99.4553223 0.2137326
6.0909520 99.7265701 0.2128587
6.1082782 99.9923782 0.2125084
6.1256044 100.1177063 0.2136483
6.1429306 100.3063507 0.2129860
6.1602568 100.7032700 0.2122550
6.1775830 100.9694672 0.2136719
6.1949092 100.8985672 0.2126452
6.2122353 101.0467072 0.2115290
6.2295615 101.2723618 0.2127270
6.2468877 101.4193726 0.2126026
6.2642139 101.6372910 0.2112810
6.2815401 101.9957962 0.2126378
6.2988663 102.3220901 0.2127002
6.3161925 102.8286896 0.2115921
6.3335187 103.2706375 0.2127491
6.3508448 103.7316208 0.2133170
6.3681710 104.3049164 0.2122954
6.3854972 104.8377533 0.2134265
6.4028234 105.2157822 0.2142258
6.4201496 105.6981430 0.2129440
6.4374758 106.9610672 0.2146306
6.4548020 108.4553452 0.2164592
6.4721281 109.6125107 0.2161352
6.4894543 109.8823090 0.2165625
6.5067805 109.2470245 0.2165691
6.5241067 108.2742157 0.2141312
6.5414329 107.5047760 0.2132100
6.5587591 107.2445145 0.2136062
6.5760853 107.3635712 0.2123389
6.5934115 107.5082092 0.2121152
6.6107376 107.7782593 0.2132269
6.6280638 108.1507797 0.2123769
6.6453900 108.4583435 0.2121125
6.6627162 108.6545486 0.2132093
6.6800424 109.0909424 0.2126328
6.6973686 109.6312256 0.2122715
6.7146948 109.9172363 0.2136513
6.7320210 109.9336777 0.2128996
6.7493471 110.0708771 0.2120503
6.7666733 110.4006577 0.2133523
6.7839995 110.7984772 0.2133227
6.8013257 111.0914001 0.2120703
6.8186519 111.5266647 0.2134891
6.8359781 111.8720474 0.2134791
6.8533043 112.2367172 0.2125272
6.8706304 112.7316818 0.2136400
6.8879566 113.3920364 0.2144680
6.9052828 113.6745529 0.2131618
6.9226090 113.8726578 0.2138446
6.9399352 114.0009232 0.2142605
6.9572614 114.1286850 0.2127499
6.9745876 114.4728317 0.2133929
6.9919138 115.0718384 0.2144468
7.0092399 115.7763443 0.2135324
7.0265661 116.4047394 0.2141672
7.0438923 116.8280716 0.2150255
7.0612185 117.1862259 0.2139636
7.0785447 117.3188705 0.2139038
7.0958709 117.5326233 0.2148975
7.1131971 117.8488846 0.2140266
7.1305232 118.1869202 0.2139256
7.1478494 118.5965271 0.2150703
7.1651756 119.1872787 0.2146937
7.1825018 119.4785767 0.2141549
7.1998280 119.6906815 0.2153112
7.2171542 119.7215042 0.2147283
7.2344804 119.8453751 0.2137148
7.2518066 120.3552322 0.2152786
7.2691327 120.9991455 0.2153703
7.2864589 121.5414276 0.2145205
7.3037851 121.8550415 0.2155959
7.3211113 122.1824341 0.2157975
7.3384375 122.5940552 0.2146707
7.3557637 122.8018646 0.2156286
7.3730899 122.9681168 0.2158399
7.3904161 123.4056702 0.2147396
7.4077422 123.8558578 0.2155004
7.4250684 124.2587204 0.2162282
7.4423946 124.6839066 0.2151380
7.4597208 125.0375061 0.2156046
7.4770470 125.3061066 0.2162945
7.4943732 125.6020432 0.2151142
7.5116994 126.0002289 0.2154393
7.5290255 126.3974533 0.2163951
7.5463517 126.8663483 0.2155674
7.5636779 127.4156494 0.2158635
7.5810041 127.7120285 0.2168887
7.5983303 128.1919403 0.2162967
7.6156565 128.6336670 0.2160988
7.6329827 128.8235931 0.2170869
7.6503089 128.9818115 0.2164475
7.6676350 129.3708954 0.2158487
7.6849612 129.8381958 0.2172743
7.7022874 130.1562500 0.2170273
7.7196136 130.3948364 0.2160773
7.7369398 130.7162476 0.2171338
7.7542660 131.1662903 0.2172323
7.7715922 131.7083435 0.2163981
7.7889184 131.8753967 0.2172162
7.8062445 132.0317383 0.2174061
7.8235707 132.4074097 0.2163261
7.8408969 132.9283142 0.2171366
7.8582231 133.4875641 0.2179587
7.8755493 133.7190247 0.2167234
7.8928755 133.8009644 0.2169151
7.9102017 134.0870209 0.2176789
7.9275278 134.5745697 0.2167456
7.9448540 134.9956818 0.2170035
7.9621802 135.3146667 0.2178877
7.9795064 135.5118103 0.2169883
7.9968326 135.3879395 0.2163241
8.0141588 135.4002533 0.2172934
8.0314850 135.8399963 0.2168557
8.0488112 136.1968079 0.2164065
8.0661373 136.5173950 0.2175165
8.0834635 136.8681183 0.2171928
8.1007897 137.4300079 0.2166412
8.1181159 137.8744965 0.2177618
8.1354421 138.1974792 0.2177998
8.1527683 138.5909271 0.2168720
8.1700945 138.9869232 0.2177812
8.1874206 139.3860626 0.2181482
8.2047468 139.7294922 0.2169698
8.2220730 139.9597168 0.2176597
8.2393992 140.1501160 0.2180742
8.2567254 140.4033813 0.2169530
8.2740516 140.6694336 0.2173299
8.2913778 140.9683075 0.2180652
8.3087040 141.2765808 0.2171503
8.3260301 141.5029297 0.2171151
8.3433563 141.8207550 0.2182038
8.3606825 142.1246185 0.2173360
8.3780087 142.5130768 0.2171596
8.3953349 142.8037567 0.2181995
8.4126611 143.0355530 0.2176734
8.4299873 143.2266083 0.2169758
8.4473135 143.2756042 0.2178026
8.4646396 143.4186096 0.2174642
8.4819658 143.7672119 0.2166324
8.4992920 144.4778290 0.2179295
8.5166182 145.0470123 0.2182432
8.5339444 145.4434052 0.2172683
8.5512706 145.7905731 0.2180330
8.5685968 146.1806946 0.2185159
8.5859229 146.2914734 0.2172955
8.6032491 146.1361389 0.2174626
8.6205753 146.3992767 0.2180952
8.6379015 146.8489838 0.2171937
8.6552277 147.2590790 0.2174457
8.6725539 147.6382751 0.2183947
8.6898801 148.1581268 0.2177248
8.7072063 148.5553589 0.2177185
8.7245324 148.5934448 0.2184954
8.7418586 148.5707245 0.2176958
8.7591848 148.7827759 0.2170380
8.7765110 149.0461426 0.2181028
8.7938372 149.3110352 0.2178567
8.8111634 149.6022491 0.2170282
8.8284896 149.8077087 0.2178910
8.8458158 150.3677063 0.2182030
8.8631419 150.8204651 0.2172435
8.8804681 151.1654510 0.2180202
8.8977943 151.5843964 0.2184847
8.9151205 151.8924103 0.2173862
8.9324467 152.1485596 0.2179141
8.9497729 152.2899933 0.2183285
8.9670991 152.4625244 0.2173669
8.9844252 152.7002411 0.2174653
9.0017514 152.7858582 0.2181304
9.0190776 153.1890869 0.2175039
9.0364038 153.8370819 0.2175046
9.0537300 154.2755432 0.2186231
9.0710562 154.3704071 0.2180582
9.0883824 154.6223602 0.2174436
9.1057086 155.2637482 0.2186719
9.1230347 156.0971680 0.2188841
9.1403609 157.2327728 0.2186289
9.1576871 158.0828857 0.2199166
9.1750133 158.2340851 0.2198945
9.1923395 157.9565887 0.2185679
9.2096657 157.3277283 0.2184208
9.2269919 157.0632782 0.2186160
9.2443180 156.8082428 0.2170844
9.2616442 157.1040649 0.2174812
9.2789704 157.5646667 0.2182879
9.2962966 157.6660156 0.2173142
9.3136228 157.8845367 0.2171740
9.3309490 158.0689850 0.2180128
9.3482752 158.1037750 0.2173028
9.3656014 158.5701447 0.2169679
9.3829275 159.1511230 0.2181093
9.4002537 159.3558960 0.2179172
9.4175799 159.1799622 0.2167499
9.4349061 159.2663727 0.2175556
9.4522323 159.4903412 0.2175286
9.4695585 159.9482727 0.2167578
9.4868847 160.1027222 0.2172771
9.5042109 160.2526703 0.2175916
9.5215370 160.3058777 0.2164487
9.5388632 160.4344635 0.2167140
9.5561894 160.6238403 0.2173087
9.5735156 160.9436646 0.2164733
9.5908418 161.2559052 0.2164958
9.6081680 161.4604797 0.2172702
9.6254942 161.8223724 0.2167454
9.6428203 162.2250061 0.2165558
9.6601465 162.2812347 0.2171735
9.6774727 162.5037384 0.2169759
9.6947989 162.8397980 0.2162708
9.7121251 163.0852509 0.2171373
9.7294513 163.0941772 0.2170041
9.7467775 163.1469116 0.2160159
9.7641037 163.4191742 0.2166178
9.7814298 163.6813507 0.2169807
9.7987560 163.9783173 0.2159849
9.8160822 164.5740204 0.2165442
9.8334084 165.0395355 0.2173922
9.8507346 165.1567230 0.2164247
9.8680608 165.1404266 0.2161801
9.8853870 165.2894592 0.2168429
9.9027131 165.6897125 0.2164045
9.9200393 166.2039795 0.2161411
9.9373655 166.5850677 0.2170886
9.9546917 166.8185120 0.2169048
9.9720179 166.9501343 0.2160096
9.9893441 167.3070679 0.2168243
10.0066703 167.6529999 0.2169661
10.0239965 167.8527832 0.2160826
10.0413226 168.0044861 0.2165520
10.0586488 168.3383636 0.2170535
10.0759750 168.6633148 0.2160720
10.0933012 168.9261627 0.2162728
10.1106274 169.3718262 0.2170237
10.1279536 170.0361786 0.2167944
10.1452798 170.7616272 0.2168042
10.1626060 171.5461578 0.2180104
10.1799321 172.7345123 0.2181284
10.1972583 175.5006714 0.2191365
10.2145845 180.1977386 0.2227007
10.2319107 185.8699493 0.2260956
10.2492369 189.5741272 0.2274747
10.2665631 189.3345795 0.2277453
10.2838893 185.3606262 0.2253669
10.3012154 180.5449982 0.2212576
10.3185416 176.8930817 0.2191921
10.3358678 174.8153229 0.2183605
10.3531940 173.8457336 0.2168581
10.3705202 173.5904236 0.2164431
10.3878464 173.7136383 0.2172657
10.4051726 173.5023804 0.2164821
10.4224988 173.2098846 0.2157601
10.4398249 173.1707306 0.2163907
10.4571511 173.2919464 0.2162040
10.4744773 173.2492676 0.2153161
10.4918035 173.2783966 0.2158737
10.5091297 173.3664856 0.2160309
10.5264559 173.5498199 0.2150930
10.5437821 173.6920471 0.2152979
10.5611083 173.6774292 0.2154795
10.5784344 173.7221069 0.2145957
10.5957606 173.6590271 0.2144394
10.6130868 173.3427124 0.2147913
10.6304130 173.1334686 0.2139924
10.6477392 173.1860809 0.2134127
10.6650654 173.2232971 0.2140242
10.6823916 173.1636963 0.2137339
10.6997177 173.2610168 0.2131417
10.7170439 173.3020630 0.2135552
10.7343701 173.2320099 0.2134160
10.7516963 173.2415314 0.2124216
10.7690225 173.4213867 0.2127459
10.7863487 173.6214447 0.2131742
10.8036749 173.8262787 0.2124563
10.8210011 174.0897064 0.2123809
10.8383272 174.5585785 0.2132025
10.8556534 174.5677185 0.2126742
10.8729796 174.3959656 0.2120412
10.8903058 174.1970673 0.2123664
10.9076320 174.0905762 0.2120096
10.9249582 174.4285278 0.2114245
10.9422844 174.8783722 0.2121286
10.9596105 175.0289917 0.2123145
10.9769367 175.0039978 0.2114326
10.9942629 175.0237885 0.2115272
11.0115891 175.2621155 0.2120688
11.0289153 175.4141998 0.2113312
11.0462415 175.5257263 0.2112825
11.0635677 175.5053101 0.2117609
11.0808939 175.6482086 0.2114004
11.0982200 175.9904480 0.2109973
11.1155462 176.3254700 0.2116343
11.1328724 176.3231354 0.2114868
11.1501986 176.2398224 0.2107223
11.1675248 176.2378082 0.2110274
11.1848510 176.3229980 0.2111558
11.2021772 176.5698395 0.2105538
11.2195034 176.7725067 0.2106716
11.2368295 177.0267334 0.2112748
11.2541557 177.0868530 0.2106428
11.2714819 177.0067139 0.2102021
11.2888081 176.8659363 0.2105724
11.3061343 176.7740936 0.2102428
11.3234605 176.8125153 0.2096641
11.3407867 177.0482788 0.2101386
11.3581128 177.2102203 0.2101400
11.3754390 177.3385315 0.2094528
11.3927652 177.3546906 0.2097103
11.4100914 177.4328156 0.2100259
11.4274176 177.8000488 0.2094921
11.4447438 177.8813171 0.2093432
11.4620700 178.0594940 0.2099373
11.4793962 178.2455444 0.2095577
11.4967223 178.6338654 0.2093236
11.5140485 179.0486603 0.2098552
11.5313747 179.1652222 0.2097129
11.5487009 179.0508728 0.2089527
11.5660271 179.1218719 0.2092540
11.5833533 179.4052582 0.2095043
11.6006795 179.7484589 0.2090184
11.6180057 179.9048615 0.2090226
11.6353318 180.0484009 0.2094060
11.6526580 180.0152588 0.2089294
11.6699842 180.0641479 0.2085747
11.6873104 180.2030945 0.2089974
11.7046366 180.3923187 0.2088350
11.7219628 180.6084290 0.2082892
11.7392890 180.7522430 0.2086938
11.7566151 180.8833160 0.2088180
11.7739413 180.8954010 0.2080667
11.7912675 180.9090424 0.2081229
11.8085937 180.9307861 0.2084095
11.8259199 181.1598816 0.2080190
11.8432461 181.2233429 0.2077504
11.8605723 181.3776703 0.2081382
11.8778985 181.3831177 0.2078265
11.8952246 181.4488831 0.2073466
11.9125508 181.6791992 0.2076862
11.9298770 182.1412201 0.2080011
11.9472032 182.5011749 0.2074825
11.9645294 182.7699280 0.2077523
11.9818556 183.0602264 0.2081424
11.9991818 183.3704224 0.2078079
12.0165079 183.4849548 0.2075875
12.0338341 183.6778870 0.2080848
12.0511603 183.7670593 0.2078178
12.0684865 183.9301453 0.2074815
12.0858127 183.9789581 0.2077158
12.1031389 184.0481415 0.2076394
12.1204651 184.4457245 0.2073013
12.1377913 184.8696442 0.2075633
12.1551174 185.2170715 0.2079496
12.1724436 185.4281311 0.2076063
12.1897698 185.4503479 0.2073827
12.2070960 185.4676056 0.2077291
12.2244222 185.6934967 0.2075707
12.2417484 186.1360779 0.2074325
12.2590746 186.3956146 0.2077111
12.2764008 186.5193176 0.2077044
12.2937269 186.5984802 0.2072406
12.3110531 186.6883392 0.2073452
12.3283793 186.7691040 0.2075949
12.3457055 186.9963989 0.2071721
12.3630317 187.3143005 0.2072232
12.3803579 187.4685822 0.2075744
12.3976841 187.7820587 0.2075084
12.4150102 188.1835175 0.2072589
12.4323364 188.4514313 0.2075446
12.4496626 188.5246582 0.2075702
12.4669888 188.4585571 0.2070257
12.4843150 188.5537262 0.2072047
12.5016412 188.8683319 0.2074740
12.5189674 189.1549835 0.2072158
12.5362936 189.6098328 0.2072302
12.5536197 190.0243835 0.2077313
12.5709459 190.2393951 0.2076755
12.5882721 190.6601410 0.2073994
12.6055983 190.8006287 0.2075826
12.6229245 190.7638397 0.2075092
12.6402507 190.8568115 0.2071725
12.6575769 190.9413605 0.2071903
12.6749031 190.9379425 0.2073376
12.6922292 191.0783081 0.2071152
12.7095554 191.2488556 0.2069209
12.7268816 191.4236145 0.2072683
12.7442078 191.6088867 0.2070693
12.7615340 191.8966370 0.2068932
12.7788602 192.1224213 0.2069648
12.7961864 192.3775024 0.2071609
12.8135125 192.5415497 0.2068886
12.8308387 192.8747253 0.2070011
12.8481649 193.1466064 0.2073302
12.8654911 193.3066101 0.2071530
12.8828173 193.3101501 0.2068192
12.9001435 193.7939453 0.2071659
12.9174697 194.5254059 0.2073632
12.9347959 195.5442200 0.2075613
12.9521220 197.0223541 0.2082476
12.9694482 198.7282715 0.2093326
12.9867744 199.2052917 0.2091952
13.0041006 198.3972015 0.2086056
13.0214268 197.2608490 0.2082025
13.0387530 196.3035431 0.2074709
13.0560792 196.0226288 0.2070329
13.0734053 196.0149994 0.2069854
13.0907315 195.8742065 0.2069217
13.1080577 195.7501678 0.2063892
13.1253839 195.8166962 0.2063394
13.1427101 196.0567017 0.2065683
13.1600363 196.4118195 0.2065450
13.1773625 196.6785278 0.2064811
13.1946887 197.0242615 0.2066710
13.2120148 197.5630951 0.2069406
13.2293410 198.2877045 0.2068902
13.2466672 199.0851593 0.2073028
13.2639934 199.7851562 0.2076459
13.2813196 200.8954163 0.2079199
13.2986458 202.2665100 0.2085213
13.3159720 203.5042572 0.2091955
13.3332982 204.7049103 0.2096968
13.3506243 206.1313019 0.2100578
13.3679505 207.8812714 0.2108832
13.3852767 209.8037415 0.2119104
13.4026029 211.7554779 0.2125620
13.4199291 213.6681976 0.2134028
13.4372553 215.8428345 0.2145417
13.4545815 217.9555969 0.2154005
13.4719076 219.8958893 0.2160868
13.4892338 221.7715912 0.2169704
13.5065600 223.5274506 0.2178607
13.5238862 224.9100647 0.2180794
13.5412124 225.7903137 0.2183697
13.5585386 226.0909576 0.2185394
13.5758648 225.6486359 0.2181408
13.5931910 224.3460846 0.2173713
13.6105171 222.7266846 0.2165468
13.6278433 220.8456573 0.2156738
13.6451695 218.7570496 0.2142984
13.6624957 216.5781708 0.2131366
13.6798219 213.9979401 0.2118196
13.6971481 211.3444519 0.2102872
13.7144743 208.4294128 0.2086451
13.7318005 205.3581696 0.2070670
13.7491266 202.6013641 0.2056985
13.7664528 200.2153625 0.2041433
13.7837790 197.9246521 0.2029023
13.8011052 195.7158051 0.2019114
13.8184314 193.4333649 0.2003715
13.8357576 191.6486053 0.1993208
13.8530838 190.0495758 0.1985262
13.8704099 188.6905060 0.1978470
13.8877361 187.3106537 0.1967771
13.9050623 186.0924530 0.1961041
13.9223885 185.0934143 0.1956450
13.9397147 184.2260590 0.1948206
13.9570409 183.7207184 0.1943166
13.9743671 183.4356384 0.1942513
13.9916933 183.0381317 0.1939881
14.0090194 182.5885162 0.1935537
14.0263456 181.9825287 0.1931317
14.0436718 181.4452057 0.1929605
14.0609980 181.0696564 0.1924727
14.0783242 180.7267151 0.1920633
14.0956504 180.5344696 0.1920286
14.1129766 181.1126099 0.1922354
14.1303027 182.6126709 0.1927221
14.1476289 185.8768158 0.1943318
14.1649551 193.2474060 0.1980601
14.1822813 210.0956116 0.2061402
14.1996075 238.8049164 0.2196364
14.2169337 270.0667114 0.2344661
14.2342599 285.1913452 0.2409649
14.2515861 274.0001526 0.2355126
14.2689122 244.7941895 0.2222740
14.2862384 215.0451965 0.2081535
14.3035646 194.8579712 0.1978824
14.3208908 183.9308624 0.1920379
14.3382170 178.5327148 0.1894547
14.3555432 175.8156128 0.1878953
14.3728694 174.2790375 0.1867402
14.3901956 173.6121521 0.1865195
14.4075217 173.4806061 0.1864168
14.4248479 174.5009155 0.1867039
14.4421741 177.4522247 0.1879183
14.4595003 183.9913940 0.1913393
14.4768265 195.7932739 0.1973902
14.4941527 211.3818207 0.2049131
14.5114789 224.3688507 0.2114385
14.5288050 227.4560699 0.2130544
14.5461312 219.2095642 0.2086723
14.5634574 204.9981995 0.2013133
14.5807836 191.5581665 0.1946524
14.5981098 181.2570953 0.1893001
14.6154360 174.0381012 0.1850716
14.6327622 169.5054626 0.1827211
14.6500884 166.7241516 0.1814260
14.6674145 164.8457794 0.1801028
14.6847407 163.4616699 0.1790652
14.7020669 162.4888916 0.1786773
14.7193931 161.6230469 0.1780735
14.7367193 161.0932922 0.1774106
14.7540455 160.8925781 0.1773855
14.7713717 160.7400208 0.1774175
14.7886979 160.7936401 0.1771322
14.8060240 161.3209991 0.1771554
14.8233502 162.6089325 0.1780628
14.8406764 164.4762573 0.1789388
14.8580026 166.5068665 0.1797148
14.8753288 167.7768250 0.1805044
14.8926550 167.3592377 0.1804338
14.9099812 165.9216766 0.1794960
14.9273073 163.8977814 0.1779066
14.9446335 162.2763672 0.1772971
14.9619597 161.1329041 0.1765852
14.9792859 160.3191223 0.1756847
14.9966121 159.6783295 0.1754755
15.0139383 159.0702362 0.1753601
15.0312645 158.3930206 0.1746517
15.0485907 157.7291412 0.1739945
15.0659168 157.0455475 0.1738344
15.0832430 156.3359222 0.1733953
15.1005692 155.5254822 0.1725160
15.1178954 154.7198639 0.1721072
15.1352216 154.0414429 0.1719540
15.1525478 153.3777618 0.1713471
15.1698740 152.3389435 0.1704009
15.1872001 151.0856476 0.1698984
15.2045263 149.7295837 0.1691539
15.2218525 148.4689484 0.1679678
15.2391787 147.5404510 0.1674141
15.2565049 147.0467377 0.1674492
15.2738311 146.9863281 0.1671700
15.2911573 147.4950562 0.1671025
15.3084835 148.5040436 0.1678296
15.3258096 148.6659088 0.1681442
15.3431358 146.7190247 0.1666071
15.3604620 143.6925049 0.1646453
15.3777882 140.7167664 0.1632290
15.3951144 138.6179199 0.1618538
15.4124406 137.3176422 0.1607314
15.4297668 136.2579346 0.1602332
15.4470930 135.3834686 0.1598821
15.4644191 134.6559448 0.1590993
15.4817453 133.9480286 0.1584155
15.4990715 133.1127777 0.1581791
15.5163977 132.3086243 0.1576388
15.5337239 131.6634064 0.1568546
15.5510501 131.1112976 0.1565117
15.5683763 130.7617950 0.1566199
15.5857024 130.1620636 0.1559620
15.6030286 129.4252014 0.1551607
15.6203548 129.0763702 0.1551801
15.6376810 128.8727722 0.1551005
15.6550072 128.4719086 0.1544062
15.6723334 128.0309601 0.1540567
15.6896596 127.3679123 0.1539459
15.7069858 126.6337738 0.1533523
15.7243119 125.9272385 0.1524617
15.7416381 125.3678741 0.1522397
15.7589643 124.7834091 0.1520824
15.7762905 124.2395096 0.1513493
15.7936167 123.8712006 0.1508890
15.8109429 123.5518341 0.1509973
15.8282691 123.2463455 0.1507528
15.8455953 122.9457703 0.1501043
15.8629214 122.5458908 0.1498825
15.8802476 122.0901413 0.1499083
15.8975738 121.5827408 0.1492609
15.9149000 121.2187195 0.1486493
15.9322262 120.9793930 0.1488172
15.9495524 120.5560455 0.1486235
15.9668786 120.1462402 0.1479192
15.9842047 119.7110596 0.1475562
16.0015309 119.2616425 0.1476335
16.0188571 118.9836197 0.1473497
16.0361833 118.6016693 0.1466341
16.0535095 118.3191910 0.1466429
16.0708357 118.1032715 0.1467498
16.0881619 117.7136154 0.1460686
16.1054881 117.3055649 0.1455962
16.1228142 117.1199036 0.1458014
16.1401404 117.0596542 0.1457554
16.1574666 116.7382050 0.1451287
16.1747928 116.2692719 0.1449074
16.1921190 115.6473160 0.1448133
16.2094452 115.1160126 0.1442203
16.2267714 114.9492264 0.1437652
16.2440975 114.7679443 0.1438687
16.2614237 114.3769684 0.1437295
16.2787499 114.0730362 0.1431185
16.2960761 113.8478241 0.1428022
16.3134023 113.7038116 0.1430459
16.3307285 113.5580826 0.1428329
16.3480547 113.4326096 0.1423918
16.3653809 113.0663376 0.1421444
16.3827070 112.9188538 0.1423790
16.4000332 112.8520355 0.1420086
16.4173594 112.9959488 0.1417141
16.4346856 113.1412735 0.1420694
16.4520118 113.3696671 0.1423048
16.4693380 114.2016754 0.1423489
16.4866642 116.1098557 0.1433652
16.5039904 120.1182938 0.1460998
16.5213165 127.1628265 0.1502521
16.5386427 137.0601044 0.1556768
16.5559689 146.2344208 0.1610247
16.5732951 149.5619507 0.1633440
16.5906213 144.7580414 0.1602173
16.6079475 134.8081665 0.1539583
16.6252737 124.6921310 0.1482828
16.6425998 117.6250763 0.1441381
16.6599260 113.7426529 0.1412785
16.6772522 111.7135086 0.1399501
16.6945784 110.5356445 0.1395639
16.7119046 110.0087204 0.1391720
16.7292308 109.7243042 0.1385492
16.7465570 109.4047928 0.1384494
16.7638832 108.8374405 0.1384178
16.7812093 108.0625458 0.1376075
16.7985355 107.3532486 0.1367418
16.8158617 106.7858276 0.1367073
16.8331879 106.2658386 0.1365283
16.8505141 105.8234406 0.1357619
16.8678403 105.5527954 0.1354812
16.8851665 105.1824112 0.1355160
16.9024927 105.0091934 0.1353940
16.9198188 105.0861359 0.1350081
16.9371450 105.1003189 0.1349724
16.9544712 104.9398346 0.1352613
16.9717974 104.7134781 0.1349114
16.9891236 104.2169113 0.1340455
17.0064498 103.8829422 0.1341543
17.0237760 103.6065140 0.1341858
17.0411021 103.2678223 0.1335144
17.0584283 102.9847641 0.1330758
17.0757545 102.7496338 0.1332199
17.0930807 102.5547562 0.1331678
17.1104069 102.4832306 0.1327086
17.1277331 102.3815536 0.1324781
17.1450593 102.4215012 0.1329041
17.1623855 102.7360306 0.1330089
17.1797116 103.1663895 0.1327645
17.1970378 103.6757202 0.1332745
17.2143640 104.3379745 0.1340407
17.2316902 104.8162766 0.1340015
17.2490164 104.7553024 0.1336178
17.2663426 103.9788437 0.1333859
17.2836688 102.7872772 0.1327563
17.3009949 101.8151932 0.1316870
17.3183211 101.3076782 0.1311236
17.3356473 101.0748367 0.1313653
17.3529735 101.0893860 0.1314069
17.3702997 101.4495926 0.1310966
17.3876259 102.2145233 0.1316383
17.4049521 103.1543961 0.1326209
17.4222783 103.7684555 0.1328317
17.4396044 103.7904205 0.1324449
17.4569306 103.4149551 0.1322639
17.4742568 103.0584335 0.1323857
17.4915830 103.0840378 0.1320799
17.5089092 103.8628540 0.1321146
17.5262354 105.5078888 0.1334690
17.5435616 108.0173874 0.1353410
17.5608878 110.4841232 0.1364698
17.5782139 111.3719101 0.1367386
17.5955401 110.3419724 0.1365237
17.6128663 107.8039780 0.1348937
17.6301925 104.9591064 0.1326085
17.6475187 102.5534439 0.1309623
17.6648449 100.8665543 0.1302475
17.6821711 99.7919617 0.1295258
17.6994972 99.0529175 0.1285002
17.7168234 98.5915985 0.1282924
17.7341496 98.2409286 0.1283971
17.7514758 98.0899582 0.1280617
17.7688020 97.9332962 0.1275244
17.7861282 97.7036591 0.1275949
17.8034544 97.4329910 0.1277019
17.8207806 97.2429276 0.1272415
17.8381067 97.1736908 0.1268467
17.8554329 97.0388412 0.1270480
17.8727591 96.8770142 0.1271653
17.8900853 96.8238831 0.1267178
17.9074115 96.6626968 0.1263073
17.9247377 96.6123123 0.1267231
17.9420639 96.7949677 0.1268915
17.9593900 96.9692841 0.1264830
17.9767162 97.0646973 0.1265439
17.9940424 97.0285568 0.1268567
18.0113686 96.8049469 0.1266300
18.0286948 96.6156693 0.1260358
18.0460210 96.5189819 0.1259897
18.0633472 96.4540405 0.1263246
18.0806734 96.3991470 0.1261220
18.0979995 96.1421890 0.1253867
18.1153257 95.9564056 0.1254347
18.1326519 95.9151611 0.1257797
18.1499781 96.1230087 0.1255791
18.1673043 96.3210297 0.1252945
18.1846305 96.2594757 0.1255980
18.2019567 95.9109650 0.1255976
18.2192829 95.6758804 0.1250761
18.2366090 95.3250580 0.1244932
18.2539352 95.0301132 0.1246066
18.2712614 95.1035004 0.1249101
18.2885876 95.2481155 0.1245547
18.3059138 95.2678604 0.1242804
18.3232400 95.4358444 0.1248074
18.3405662 95.8640137 0.1252099
18.3578923 96.6931839 0.1252390
18.3752185 97.7652817 0.1257966
18.3925447 98.4219513 0.1266579
18.4098709 98.2855377 0.1265696
18.4271971 97.5612259 0.1255265
18.4445233 96.5119476 0.1247393
18.4618495 95.5586624 0.1245651
18.4791757 94.9624481 0.1240668
18.4965018 94.6488342 0.1232993
18.5138280 94.4481049 0.1232274
18.5311542 94.2909851 0.1235233
18.5484804 94.1616440 0.1232721
18.5658066 94.0365067 0.1227122
18.5831328 93.8194733 0.1227115
18.6004590 93.7184067 0.1230614
18.6177852 93.6167145 0.1227445
18.6351113 93.5653152 0.1222112
18.6524375 93.6397095 0.1225699
18.6697637 93.5995560 0.1228924
18.6870899 93.6466980 0.1226210
18.7044161 93.5446854 0.1220640
18.7217423 93.6268539 0.1224455
18.7390685 93.6827698 0.1227521
18.7563946 93.8333435 0.1224739
18.7737208 93.9664764 0.1221075
18.7910470 94.0987167 0.1224334
18.8083732 94.3099289 0.1228785
18.8256994 94.7505188 0.1227317
18.8430256 95.4943848 0.1227888
18.8603518 96.6049347 0.1238522
18.8776780 98.4347534 0.1252964
18.8950041 101.7782211 0.1269259
18.9123303 107.4179077 0.1300768
18.9296565 115.8113022 0.1356122
18.9469827 125.3920135 0.1415498
18.9643089 132.0861053 0.1449053
18.9816351 132.0336304 0.1445224
18.9989613 125.4268036 0.1411899
19.0162874 115.6929245 0.1356608
19.0336136 106.9948654 0.1298042
19.0509398 101.1438370 0.1259108
19.0682660 97.7818680 0.1241652
19.0855922 96.0706635 0.1233318
19.1029184 95.0245438 0.1221074
19.1202446 94.3671570 0.1214373
19.1375708 93.8176575 0.1214900
19.1548969 93.4123459 0.1213998
19.1722231 93.1649170 0.1206543
19.1895493 93.1210709 0.1204964
19.2068755 93.0223312 0.1208712
19.2242017 92.9966507 0.1209958
19.2415279 93.1711121 0.1206587
19.2588541 93.3864212 0.1205869
19.2761803 93.7622910 0.1212499
19.2935064 94.4376144 0.1219292
19.3108326 94.7649689 0.1216073
19.3281588 94.4038315 0.1210677
19.3454850 93.8400726 0.1211245
19.3628112 93.1961746 0.1208011
19.3801374 92.7462769 0.1199213
19.3974636 92.4518967 0.1195254
19.4147897 92.3936768 0.1199086
19.4321159 92.6320572 0.1201712
19.4494421 92.9624939 0.1198181
19.4667683 93.9681625 0.1203464
19.4840945 95.8613586 0.1219474
19.5014207 98.2017822 0.1237376
19.5187469 99.8165207 0.1243344
19.5360731 99.7411957 0.1239823
19.5533992 98.1461792 0.1234021
19.5707254 95.7784195 0.1221353
19.5880516 93.7656403 0.1202284
19.6053778 92.6402817 0.1191769
19.6227040 92.0159912 0.1192137
19.6400302 91.5857773 0.1191252
19.6573564 91.2236710 0.1183029
19.6746826 90.9064407 0.1178180
19.6920087 90.9183426 0.1182212
19.7093349 90.9714737 0.1184376
19.7266611 91.0145950 0.1180466
19.7439873 91.0646896 0.1178423
19.7613135 90.9756012 0.1180607
19.7786397 90.9818726 0.1184310
19.7959659 90.9951859 0.1180837
19.8132920 91.1345749 0.1177998
19.8306182 91.2184296 0.1181554
19.8479444 91.2325363 0.1185242
19.8652706 91.2970352 0.1180947
19.8825968 91.4988632 0.1177703
19.8999230 91.5143356 0.1180751
19.9172492 91.2117462 0.1182192
19.9345754 90.8949814 0.1176115
19.9519015 90.7087936 0.1170486
19.9692277 90.6725159 0.1172388
19.9865539 90.7286224 0.1176643
20.0038801 90.7707748 0.1174978
20.0212063 90.6983948 0.1170115
20.0385325 90.6481247 0.1171316
20.0558587 90.5567169 0.1175428
20.0731848 90.5213242 0.1174327
20.0905110 90.5521393 0.1167935
20.1078372 90.6294937 0.1168621
20.1251634 90.5838470 0.1173251
20.1424896 90.6475601 0.1172520
20.1598158 90.6750259 0.1165666
20.1771420 90.7761841 0.1166819
20.1944682 90.8815613 0.1172309
20.2117943 90.8602829 0.1171838
20.2291205 90.8916397 0.1166593
20.2464467 91.0455399 0.1167113
20.2637729 91.3336563 0.1173068
20.2810991 91.9578171 0.1179147
20.2984253 93.0554352 0.1181341
20.3157515 95.1729355 0.1191771
20.3330777 98.9421158 0.1217778
20.3504038 104.9709930 0.1258358
20.3677300 112.1339798 0.1296329
20.3850562 117.3095322 0.1322196
20.4023824 117.3711319 0.1325924
20.4197086 112.4235535 0.1300981
20.4370348 105.5056839 0.1254367
20.4543610 99.8285522 0.1214917
20.4716871 96.2327728 0.1196376
20.4890133 94.5492935 0.1190656
20.5063395 94.3893967 0.1186989
20.5236657 95.4355850 0.1188966
20.5409919 97.7298508 0.1204555
20.5583181 101.3158875 0.1230675
20.5756443 105.2859268 0.1253996
20.5929705 107.5346832 0.1262330
20.6102966 106.5925674 0.1255470
20.6276228 103.0832596 0.1238134
20.6449490 98.7717361 0.1212449
20.6622752 95.3126526 0.1185253
20.6796014 93.1467667 0.1169740
20.6969276 91.8784332 0.1166140
20.7142538 91.1044083 0.1164794
20.7315800 90.7051773 0.1157622
20.7489061 90.4116898 0.1152130
20.7662323 90.1439438 0.1153802
20.7835585 89.8604584 0.1155183
20.8008847 89.8046417 0.1151003
20.8182109 89.8547134 0.1146368
20.8355371 90.1505814 0.1150093
20.8528633 90.6559143 0.1156907
20.8701894 91.3212662 0.1160060
20.8875156 91.9803848 0.1159579
20.9048418 91.8513489 0.1158512
20.9221680 91.1051636 0.1158419
20.9394942 90.4122391 0.1155079
20.9568204 90.0146408 0.1147806
20.9741466 89.7273636 0.1143586
20.9914728 89.6240463 0.1145856
21.0087989 89.9115753 0.1150416
21.0261251 90.3492126 0.1148956
21.0434513 90.3955688 0.1145153
21.0607775 90.0035324 0.1144866
21.0781037 89.5568161 0.1146742
21.0954299 89.1253662 0.1140977
21.1127561 88.8944702 0.1134453
21.1300822 88.6566772 0.1134629
21.1474084 88.4029770 0.1137684
21.1647346 88.3351517 0.1137011
21.1820608 88.2905884 0.1131080
21.1993870 88.2581024 0.1129927
21.2167132 88.1809082 0.1132456
21.2340394 88.1612625 0.1133940
21.2513656 88.3242874 0.1130558
21.2686917 88.5779114 0.1129116
21.2860179 88.5638962 0.1131589
21.3033441 88.4221115 0.1134725
21.3206703 88.4153214 0.1132397
21.3379965 88.5383682 0.1128516
21.3553227 88.8140945 0.1131207
21.3726489 89.3856049 0.1139157
21.3899751 90.3512268 0.1144948
21.4073012 91.3643646 0.1145646
21.4246274 91.7018585 0.1146698
21.4419536 90.8930359 0.1145230
21.4592798 89.5347900 0.1138248
21.4766060 88.3382111 0.1126574
21.4939322 87.6312943 0.1118928
21.5112584 87.2174225 0.1119289
21.5285845 86.7985153 0.1120163
21.5459107 86.6030502 0.1117193
21.5632369 86.5068283 0.1111615
21.5805631 86.5117264 0.1111629
21.5978893 86.5741806 0.1115591
21.6152155 86.7028351 0.1116801
21.6325417 86.8030777 0.1113285
21.6498679 86.6681976 0.1109757
21.6671940 86.5578613 0.1112067
21.6845202 86.4549408 0.1114893
21.7018464 86.2611313 0.1110538
21.7191726 86.2575226 0.1106772
21.7364988 86.3823547 0.1108782
21.7538250 86.4977646 0.1112767
21.7711512 86.7554550 0.1113991
21.7884774 87.1428833 0.1112137
21.8058035 87.6487045 0.1113487
21.8231297 88.4861450 0.1121748
21.8404559 89.9782791 0.1132966
21.8577821 92.9733047 0.1148620
21.8751083 97.5589371 0.1173443
21.8924345 102.6659927 0.1206399
21.9097607 105.8994370 0.1229932
21.9270868 105.2707748 0.1225669
21.9444130 101.1419144 0.1195285
21.9617392 96.1250381 0.1163213
21.9790654 92.1361694 0.1142080
21.9963916 89.6338882 0.1128566
22.0137178 87.9820786 0.1114546
22.0310440 86.8663406 0.1104079
22.0483702 86.3908081 0.1103235
22.0656963 86.1295776 0.1105174
22.0830225 85.9358673 0.1103186
22.1003487 85.8003922 0.1097470
22.1176749 85.6099091 0.1095471
22.1350011 85.3463364 0.1097210
22.1523273 85.2256088 0.1097766
22.1696535 85.2699738 0.1094659
22.1869796 85.2408600 0.1091522
22.2043058 85.1652298 0.1092773
22.2216320 85.0030746 0.1094428
22.2389582 84.9123077 0.1093355
22.2562844 84.9065933 0.1089497
22.2736106 84.9683456 0.1088950
22.2909368 85.0283203 0.1091827
22.3082630 85.0518112 0.1093638
22.3255891 85.0234146 0.1090869
22.3429153 85.1643906 0.1088798
22.3602415 85.2712784 0.1090319
22.3775677 85.1562805 0.1092109
22.3948939 85.0158615 0.1091728
22.4122201 84.9047699 0.1087286
22.4295463 84.8585739 0.1084842
22.4468725 84.8240967 0.1087100
22.4641986 84.8935547 0.1090253
22.4815248 85.0265427 0.1088999
22.4988510 85.2016373 0.1086235
22.5161772 85.4468994 0.1087687
22.5335034 86.0046539 0.1094896
22.5508296 86.6594772 0.1100064
22.5681558 87.1204147 0.1099454
22.5854819 87.0826187 0.1096387
22.6028081 86.7500916 0.1096254
22.6201343 86.3530273 0.1096285
22.6374605 86.0300446 0.1093161
22.6547867 86.0235596 0.1089666
22.6721129 87.0474014 0.1095043
22.6894391 90.4241257 0.1117195
22.7067653 99.7325439 0.1174201
22.7240914 114.3132629 0.1260546
22.7414176 120.9030609 0.1299973
22.7587438 111.8180695 0.1244002
22.7760700 98.7144089 0.1163540
22.7933962 91.2790222 0.1122638
22.8107224 88.7301407 0.1105181
22.8280486 87.6144028 0.1096433
22.8453748 86.5707703 0.1091054
22.8627009 85.7298965 0.1087485
22.8800271 85.1197586 0.1083140
22.8973533 84.6592026 0.1077601
22.9146795 84.2470169 0.1073333
22.9320057 83.9321976 0.1073354
22.9493319 83.6855164 0.1073398
22.9666581 83.6127625 0.1071855
22.9839842 83.5894623 0.1068814
23.0013104 83.5092316 0.1067268
23.0186366 83.6053085 0.1069968
23.0359628 83.6085587 0.1071192
23.0532890 83.5526047 0.1069149
23.0706152 83.4714279 0.1065664
23.0879414 83.2702332 0.1065011
23.1052676 83.0516815 0.1066487
23.1225937 82.8250427 0.1065231
23.1399199 82.8230286 0.1062435
23.1572461 82.8368301 0.1059962
23.1745723 82.6904221 0.1060020
23.1918985 82.5565567 0.1061353
23.2092247 82.5286407 0.1061264
23.2265509 82.4599686 0.1057969
23.2438770 82.4605713 0.1056769
23.2612032 82.6864700 0.1060408
23.2785294 83.1334381 0.1064619
23.2958556 83.5400925 0.1065657
23.3131818 83.9995422 0.1065627
23.3305080 84.4309464 0.1067876
23.3478342 84.5249023 0.1070844
23.3651604 84.0772018 0.1069117
23.3824865 83.4657898 0.1064077
23.3998127 82.8881760 0.1057722
23.4171389 82.5222092 0.1055451
23.4344651 82.3225327 0.1055488
23.4517913 82.1990585 0.1054808
23.4691175 82.2003860 0.1053130
23.4864437 82.2252808 0.1051745
23.5037699 82.0555725 0.1051529
23.5210960 81.9089508 0.1051891
23.5384222 81.9971085 0.1053290
23.5557484 82.0171432 0.1051592
23.5730746 82.0218277 0.1049372
23.5904008 81.9775238 0.1049063
23.6077270 82.0533218 0.1050561
23.6250532 82.1765747 0.1052130
23.6423793 82.2442932 0.1051058
23.6597055 82.5714569 0.1051889
23.6770317 83.0573807 0.1055620
23.6943579 83.7145081 0.1060629
23.7116841 84.8102112 0.1066856
23.7290103 86.9479980 0.1078382
23.7463365 90.4739914 0.1098211
23.7636627 95.2665024 0.1128160
23.7809888 100.1802673 0.1159109
23.7983150 103.1669922 0.1178056
23.8156412 102.4530945 0.1172320
23.8329674 98.4844208 0.1146216
23.8502936 93.4561768 0.1115794
23.8676198 89.5819016 0.1092958
23.8849460 87.2661667 0.1078952
23.9022722 86.1407547 0.1070898
23.9195983 85.7768326 0.1067425
23.9369245 86.1559143 0.1070218
23.9542507 87.3924637 0.1078428
23.9715769 89.6389008 0.1090880
23.9889031 94.2318420 0.1113883
24.0062293 105.7379379 0.1172673
24.0235555 135.3694458 0.1326032
24.0408816 194.4726410 0.1598820
24.0582078 267.2450867 0.1876628
24.0755340 310.1198120 0.2015022
24.0928602 287.1220703 0.1942679
24.1101864 212.9763489 0.1670583
24.1275126 144.5886078 0.1363170
24.1448388 110.2067719 0.1195567
24.1621650 97.1437225 0.1128507
24.1794911 93.3556976 0.1108266
24.1968173 95.7126312 0.1126747
24.2141435 107.4837570 0.1196952
24.2314697 134.2011719 0.1329426
24.2487959 172.8479767 0.1532315
24.2661221 203.4137878 0.1721279
24.2834483 174.0453796 0.1548775
24.3007744 122.9999847 0.1266886
24.3181006 94.1461868 0.1114608
24.3354268 86.2322922 0.1068095
24.3527530 83.8886948 0.1051020
24.3700792 82.9162140 0.1044412
24.3874054 82.2961044 0.1039968
24.4047316 81.7818832 0.1037123
24.4220578 81.4346619 0.1035582
24.4393839 81.3810883 0.1034402
24.4567101 81.4013214 0.1034268
24.4740363 81.3890915 0.1033324
24.4913625 81.2793350 0.1032535
24.5086887 81.2055588 0.1032330
24.5260149 81.0982132 0.1029955
24.5433411 81.0827103 0.1030087
24.5606673 81.0859451 0.1030466
24.5779934 81.0852203 0.1030872
24.5953196 81.0460205 0.1031245
24.6126458 80.8969727 0.1028533
24.6299720 80.8303528 0.1026469
24.6472982 80.8473358 0.1026465
24.6646244 80.8478851 0.1026948
24.6819506 80.8919067 0.1029389
24.6992767 81.0196075 0.1029758
24.7166029 81.1106339 0.1028084
24.7339291 81.1442032 0.1027394
24.7512553 81.1863098 0.1027113
24.7685815 81.1898422 0.1028399
24.7859077 81.1791611 0.1028844
24.8032339 81.2073669 0.1028216
24.8205601 81.3411713 0.1028499
24.8378862 81.4638290 0.1028402
24.8552124 81.4002991 0.1028180
24.8725386 81.2592239 0.1027794
24.8898648 81.1508789 0.1026032
24.9071910 81.1107025 0.1024994
24.9245172 81.3545990 0.1027206
24.9418434 81.4636154 0.1027333
24.9591696 81.5429077 0.1029136
24.9764957 81.4651718 0.1027471
24.9938219 81.5262680 0.1026406
25.0111481 81.7896881 0.1027967
25.0284743 82.2054825 0.1030528
25.0458005 82.9367752 0.1036635
25.0631267 84.1125412 0.1043508
25.0804529 85.9363937 0.1053470
25.0977790 87.9325638 0.1064544
25.1151052 89.6872025 0.1074616
25.1324314 90.3150711 0.1079966
25.1497576 89.3458176 0.1075986
25.1670838 87.3358078 0.1062457
25.1844100 85.1708450 0.1046685
25.2017362 83.6141891 0.1036025
25.2190624 82.5016632 0.1028898
25.2363885 81.8445587 0.1026679
25.2537147 81.5572357 0.1025881
25.2710409 81.3851318 0.1023450
25.2883671 81.1382294 0.1020199
25.3056933 80.9276428 0.1017842
25.3230195 80.8306580 0.1017913
25.3403457 80.8536835 0.1019953
25.3576718 80.7916412 0.1019073
25.3749980 80.8355942 0.1018196
25.3923242 80.9131851 0.1017468
25.4096504 80.9235992 0.1017052
25.4269766 80.8405075 0.1017955
25.4443028 80.6334229 0.1017065
25.4616290 80.5281372 0.1015330
25.4789552 80.4657669 0.1014099
25.4962813 80.3196182 0.1012177
25.5136075 80.2467957 0.1012120
25.5309337 80.1622009 0.1012640
25.5482599 80.0713501 0.1012095
25.5655861 79.9334488 0.1009929
25.5829123 80.0634079 0.1009877
25.6002385 80.0870056 0.1009380
25.6175647 80.1097946 0.1010784
25.6348908 80.1941147 0.1011778
25.6522170 80.2447968 0.1011012
25.6695432 80.2844315 0.1010188
25.6868694 80.5348206 0.1010999
25.7041956 80.9157867 0.1014170
25.7215218 81.0275574 0.1016345
25.7388480 80.8591232 0.1014577
25.7561741 80.6092682 0.1011769
25.7735003 80.2665634 0.1008505
25.7908265 80.2037201 0.1008061
25.8081527 80.1793213 0.1008898
25.8254789 80.1303406 0.1009631
25.8428051 80.3245926 0.1009839
25.8601313 80.5668716 0.1009590
25.8774575 80.7085190 0.1009667
25.8947836 80.7986603 0.1010486
25.9121098 80.7561798 0.1011686
25.9294360 80.6807938 0.1011995
25.9467622 80.6922836 0.1010562
25.9640884 80.8106461 0.1009386
25.9814146 80.9752579 0.1009674
25.9987408 81.0139618 0.1011019
26.0160669 80.8334732 0.1011554
26.0333931 80.5873566 0.1010151
26.0507193 80.4450989 0.1007123
26.0680455 80.6493530 0.1006615
26.0853717 80.9616318 0.1008254
26.1026979 80.8986435 0.1008757
26.1200241 80.8636703 0.1010833
26.1373503 81.0111618 0.1011757
26.1546764 81.2242889 0.1011240
26.1720026 81.3940659 0.1010212
26.1893288 81.4594116 0.1009834
26.2066550 81.3949661 0.1010744
26.2239812 81.1185913 0.1011060
26.2413074 80.8736267 0.1009665
26.2586336 80.6973495 0.1006554
26.2759598 80.6018982 0.1004033
26.2932859 80.5232773 0.1003224
26.3106121 80.2817154 0.1002738
26.3279383 80.0604858 0.1003089
26.3452645 79.9532394 0.1002268
26.3625907 80.0136261 0.1001083
26.3799169 79.9949875 0.0998925
26.3972431 79.9686127 0.0998448
26.4145692 79.8962326 0.0999436
26.4318954 79.8946228 0.1001060
26.4492216 79.9092026 0.1000770
26.4665478 79.9825363 0.0999289
26.4838740 80.0616760 0.0998076
26.5012002 80.0829620 0.0998275
26.5185264 80.0349503 0.0999300
26.5358526 79.9998016 0.1000827
26.5531787 79.8993149 0.1000020
26.5705049 79.7889786 0.0996577
26.5878311 79.8241425 0.0994866
26.6051573 79.7888031 0.0994757
26.6224835 79.8661728 0.0997159
26.6398097 79.9123764 0.0999150
26.6571359 79.8856125 0.0999168
26.6744621 79.8481216 0.0996424
26.6917882 79.8979034 0.0994292
26.7091144 79.9384537 0.0994154
26.7264406 79.9911728 0.0996143
26.7437668 79.9429779 0.0998226
26.7610930 79.8061905 0.0997537
26.7784192 79.7830734 0.0994614
26.7957454 79.8592072 0.0993065
26.8130715 79.9240952 0.0993201
26.8303977 79.9759064 0.0994646
26.8477239 80.1732254 0.0997970
26.8650501 80.4392166 0.1000340
26.8823763 80.6301193 0.0999461
26.8997025 80.8950653 0.0999107
26.9170287 81.1933212 0.0999963
26.9343549 81.7927856 0.1004486
26.9516810 82.3337784 0.1009709
26.9690072 82.3647537 0.1011134
26.9863334 82.0574036 0.1008318
27.0036596 81.4646683 0.1001961
27.0209858 80.9758835 0.0997573
27.0383120 80.7762985 0.0996563
27.0556382 80.6479416 0.0997081
27.0729643 80.4408951 0.0997371
27.0902905 80.4226151 0.0997691
27.1076167 80.4057236 0.0995111
27.1249429 80.5108032 0.0993408
27.1422691 80.7332687 0.0994551
27.1595953 80.8340683 0.0996550
27.1769215 81.0019379 0.1000057
27.1942477 81.2391663 0.1002393
27.2115738 81.3848114 0.1000973
27.2289000 81.1556702 0.0996096
27.2462262 80.7842102 0.0992961
27.2635524 80.5253448 0.0993058
27.2808786 80.2976532 0.0994166
27.2982048 80.0110397 0.0993559
27.3155310 79.8179779 0.0991327
27.3328572 79.5814590 0.0986824
27.3501833 79.4321442 0.0984104
27.3675095 79.5185928 0.0984741
27.3848357 79.6253433 0.0986829
27.4021619 79.4223785 0.0986969
27.4194881 79.2815552 0.0987031
27.4368143 79.2064590 0.0985351
27.4541405 79.0118179 0.0981827
27.4714666 78.8000183 0.0979282
27.4887928 78.7520142 0.0979167
27.5061190 78.9560394 0.0982220
27.5234452 79.3725739 0.0986960
27.5407714 79.7789307 0.0989176
27.5580976 80.1353302 0.0988416
27.5754238 80.2337341 0.0986285
27.5927500 80.0988922 0.0984874
27.6100761 80.0250015 0.0986776
27.6274023 80.0554810 0.0989813
27.6447285 80.1924667 0.0991635
27.6620547 80.2892914 0.0990512
27.6793809 80.5974731 0.0989499
27.6967071 81.1046143 0.0990991
27.7140333 81.9426498 0.0996362
27.7313595 83.0534515 0.1004655
27.7486856 84.3362579 0.1014283
27.7660118 86.2478561 0.1026947
27.7833380 90.3351212 0.1050206
27.8006642 100.8234863 0.1104418
27.8179904 129.1631927 0.1243586
27.8353166 188.8543549 0.1509580
27.8526428 269.0726318 0.1820867
27.8699689 315.4441223 0.1991867
27.8872951 289.5328369 0.1915464
27.9046213 218.2971497 0.1652724
27.9219475 152.7030487 0.1368627
27.9392737 114.1070862 0.1178402
27.9565999 96.1292953 0.1080690
27.9739261 88.4663467 0.1036789
27.9912523 85.5106430 0.1019460
28.0085784 85.7038040 0.1018546
28.0259046 92.0431519 0.1049471
28.0432308 111.1385193 0.1143667
28.0605570 143.1582336 0.1296128
28.0778832 163.9694824 0.1384773
28.0952094 148.8923950 0.1325239
28.1125356 112.1458435 0.1151997
28.1298617 89.9443283 0.1037421
28.1471879 82.3913803 0.0994592
28.1645141 80.0308762 0.0978597
28.1818403 78.9388123 0.0971782
28.1991665 78.3442917 0.0969537
28.2164927 77.8751678 0.0968272
28.2338189 77.5657883 0.0967765
28.2511451 77.3922043 0.0967913
28.2684712 77.2918320 0.0966132
28.2857974 77.1946640 0.0962723
28.3031236 77.0544281 0.0960051
28.3204498 76.9285431 0.0958985
28.3377760 76.8119125 0.0959931
28.3551022 76.6952667 0.0961256
28.3724284 76.6451645 0.0961794
28.3897546 76.6232147 0.0960031
28.4070807 76.5673523 0.0956595
28.4244069 76.6615524 0.0956291
28.4417331 76.7428131 0.0957028
28.4590593 76.7918625 0.0958404
28.4763855 76.7000809 0.0959158
28.4937117 76.6396103 0.0960700
28.5110379 76.6513824 0.0960926
28.5283640 76.5836258 0.0957751
28.5456902 76.4878464 0.0954445
28.5630164 76.6158600 0.0954430
28.5803426 77.0004349 0.0958097
28.5976688 77.4126129 0.0961872
28.6149950 78.1891479 0.0967798
28.6323212 79.6823578 0.0977325
28.6496474 82.3554535 0.0992142
28.6669735 86.1726608 0.1012849
28.6842997 89.7253647 0.1032598
28.7016259 91.0867386 0.1040310
28.7189521 89.8961411 0.1034482
28.7362783 87.4264832 0.1022314
28.7536045 84.5158768 0.1006368
28.7709307 81.8772659 0.0989851
28.7882569 79.8909454 0.0975730
28.8055830 78.4837570 0.0965188
28.8229092 77.5437851 0.0958052
28.8402354 77.0794907 0.0955589
28.8575616 76.7978668 0.0955129
28.8748878 76.4514465 0.0954427
28.8922140 76.2812576 0.0954854
28.9095402 76.1815338 0.0953348
28.9268663 76.1189499 0.0950554
28.9441925 76.0485382 0.0948062
28.9615187 76.0366211 0.0947884
28.9788449 76.0837860 0.0948874
28.9961711 76.1797104 0.0950617
29.0134973 76.2198486 0.0952402
29.0308235 76.1204758 0.0952467
29.0481497 76.0983276 0.0951527
29.0654758 76.0968628 0.0949235
29.0828020 76.0837936 0.0947154
29.1001282 76.2153854 0.0947746
29.1174544 76.2675095 0.0948772
29.1347806 76.2267456 0.0949785
29.1521068 76.3124008 0.0951316
29.1694330 76.6761322 0.0954223
29.1867591 77.1884537 0.0956863
29.2040853 77.9152069 0.0959000
29.2214115 79.2354736 0.0965422
29.2387377 81.0359039 0.0975691
29.2560639 83.3414001 0.0990136
29.2733901 85.6507339 0.1005120
29.2907163 87.1992416 0.1016203
29.3080425 87.0293503 0.1015536
29.3253686 85.3676376 0.1005145
29.3426948 83.0169678 0.0989564
29.3600210 80.7093964 0.0973896
29.3773472 78.9356842 0.0961883
29.3946734 78.0828857 0.0957594
29.4119996 77.6033325 0.0955842
29.4293258 77.0052414 0.0953027
29.4466520 76.5719757 0.0951245
29.4639781 76.1038971 0.0948027
29.4813043 75.6678772 0.0944270
29.4986305 75.4170761 0.0941148
29.5159567 75.2758255 0.0939122
29.5332829 75.0759888 0.0937561
29.5506091 74.9742279 0.0937383
29.5679353 75.1445923 0.0939853
29.5852614 75.3027420 0.0941431
29.6025876 75.6875839 0.0944366
29.6199138 75.9948578 0.0945491
29.6372400 76.3814468 0.0946833
29.6545662 76.7038803 0.0947306
29.6718924 76.7708588 0.0946970
29.6892186 76.4523926 0.0945090
29.7065448 75.8893433 0.0942523
29.7238709 75.2923508 0.0939317
29.7411971 75.0726318 0.0938604
29.7585233 74.9165268 0.0937644
29.7758495 74.6609344 0.0935488
29.7931757 74.6898575 0.0934343
29.8105019 74.7821655 0.0933848
29.8278281 74.6150055 0.0931911
29.8451543 74.6714554 0.0932950
29.8624804 74.6541519 0.0933537
29.8798066 74.6515732 0.0933988
29.8971328 74.7105179 0.0934744
29.9144590 74.8031464 0.0935639
29.9317852 74.6829681 0.0934255
29.9491114 74.4762955 0.0931672
29.9664376 74.4903717 0.0930927
29.9837637 74.6793442 0.0931788
30.0010899 74.8447723 0.0932655
30.0184161 74.8945236 0.0933567
30.0357423 74.9117966 0.0934761
30.0530685 74.7488022 0.0933744
30.0703947 74.4850159 0.0931689
30.0877209 74.2720795 0.0930115
30.1050471 74.2117767 0.0929409
30.1223732 74.1377945 0.0927936
30.1396994 74.0392990 0.0926719
30.1570256 73.9390030 0.0926227
30.1743518 73.8807297 0.0926390
30.1916780 73.9890137 0.0927432
30.2090042 74.1033020 0.0927941
30.2263304 74.0821533 0.0927926
30.2436565 74.0287857 0.0928128
30.2609827 73.9783478 0.0927063
30.2783089 74.0834274 0.0926917
30.2956351 74.0470200 0.0925997
30.3129613 73.9116287 0.0925226
30.3302875 73.8285370 0.0924495
30.3476137 73.9168472 0.0925225
30.3649399 73.9937134 0.0926273
30.3822660 74.0750046 0.0926807
30.3995922 74.1526413 0.0927091
30.4169184 74.2439346 0.0927783
30.4342446 74.3854523 0.0928233
30.4515708 74.7607422 0.0929818
30.4688970 75.3004684 0.0932267
30.4862232 76.2114334 0.0937889
30.5035494 77.7204361 0.0947773
30.5208755 79.3501205 0.0957766
30.5382017 80.7779541 0.0966167
30.5555279 81.7731018 0.0972397
30.5728541 81.9513168 0.0973618
30.5901803 81.3800735 0.0970003
30.6075065 80.2616425 0.0963002
30.6248327 79.0579376 0.0955673
30.6421588 77.7499084 0.0946775
30.6594850 76.5962296 0.0939246
30.6768112 75.6161194 0.0933208
30.6941374 74.9853897 0.0929735
30.7114636 74.6255875 0.0927322
30.7287898 74.2287292 0.0924424
30.7461160 73.9126358 0.0923252
30.7634422 73.5839844 0.0921313
30.7807683 73.4401855 0.0919770
30.7980945 73.5726318 0.0920408
30.8154207 73.6761703 0.0920830
30.8327469 73.5870056 0.0919577
30.8500731 73.4171677 0.0918296
30.8673993 73.3744583 0.0918609
30.8847255 73.5462952 0.0919521
30.9020517 73.8345261 0.0920511
30.9193778 74.1629868 0.0922460
30.9367040 74.6330719 0.0926297
30.9540302 74.8784790 0.0927699
30.9713564 74.9133606 0.0927819
30.9886826 74.8829193 0.0927479
31.0060088 75.2581863 0.0929336
31.0233350 76.0212021 0.0933540
31.0406611 76.8958130 0.0939082
31.0579873 78.1576080 0.0946539
31.0753135 80.0810547 0.0957537
31.0926397 82.0799026 0.0969137
31.1099659 83.4684982 0.0977834
31.1272921 83.6046829 0.0979226
31.1446183 82.1564178 0.0970757
31.1619445 79.9111099 0.0957475
31.1792706 77.7184525 0.0944194
31.1965968 75.9146652 0.0932036
31.2139230 74.8802032 0.0925234
31.2312492 74.4147415 0.0922750
31.2485754 74.1145554 0.0920425
31.2659016 73.8295898 0.0918093
31.2832278 73.4911957 0.0916037
31.3005539 73.0772858 0.0913001
31.3178801 72.8329163 0.0911467
31.3352063 72.6747437 0.0911097
31.3525325 72.5680237 0.0911027
31.3698587 72.3807144 0.0909794
31.3871849 72.2452469 0.0908498
31.4045111 72.2752228 0.0908498
31.4218373 72.1987534 0.0907345
31.4391634 72.2859573 0.0907632
31.4564896 72.5118484 0.0909032
31.4738158 72.6116028 0.0909074
31.4911420 72.6143036 0.0908724
31.5084682 72.5163651 0.0907917
31.5257944 72.4889679 0.0908230
31.5431206 72.4303207 0.0908199
31.5604468 72.5063477 0.0908932
31.5777729 72.7218246 0.0910921
31.5950991 72.8172150 0.0911229
31.6124253 72.9614258 0.0911643
31.6297515 73.0717468 0.0912449
31.6470777 72.9482803 0.0911240
31.6644039 72.7222519 0.0909039
31.6817301 72.4041595 0.0906588
31.6990562 72.0689697 0.0903854
31.7163824 71.8318405 0.0902016
31.7337086 71.6346893 0.0901228
31.7510348 71.4701309 0.0900399
31.7683610 71.4357758 0.0900338
31.7856872 71.4397049 0.0900767
31.8030134 71.3070755 0.0900417
31.8203396 71.0945740 0.0898980
31.8376657 71.1584396 0.0899565
31.8549919 71.1509933 0.0899063
31.8723181 71.0487900 0.0897857
31.8896443 71.1236877 0.0897978
31.9069705 71.1236954 0.0896966
31.9242967 71.1621246 0.0896763
31.9416229 71.3291092 0.0897708
31.9589491 71.4234695 0.0898041
31.9762752 71.4747772 0.0898691
31.9936014 71.4249496 0.0898792
32.0109276 71.3341446 0.0898535
32.0282538 71.3010941 0.0898959
32.0455800 71.1447144 0.0898107
32.0629062 71.0257568 0.0897286
32.0802324 71.0026093 0.0897145
32.0975585 71.0186157 0.0896826
32.1148847 71.0615768 0.0896291
32.1322109 71.1830673 0.0896470
32.1495371 71.1770554 0.0895488
32.1668633 71.1957321 0.0895303
32.1841895 71.2587280 0.0895527
32.2015157 71.4287415 0.0896591
32.2188419 71.6963882 0.0898480
32.2361680 72.3765106 0.0903303
32.2534942 73.5150452 0.0910710
32.2708204 75.1290207 0.0921380
32.2881466 77.0366592 0.0933448
32.3054728 78.7213364 0.0943531
32.3227990 80.0386276 0.0951771
32.3401252 83.3014755 0.0970713
32.3574513 98.0462799 0.1058982
32.3747775 120.5381927 0.1175003
32.3921037 129.9148407 0.1220194
32.4094299 119.1757126 0.1169240
32.4267561 99.3669281 0.1052735
32.4440823 84.5329132 0.0966908
32.4614085 77.3928986 0.0930369
32.4787347 75.3882446 0.0919761
32.4960608 73.6187668 0.0908505
32.5133870 72.4160309 0.0901790
32.5307132 71.9514847 0.0899727
32.5480394 71.7212906 0.0898329
32.5653656 71.7565994 0.0898605
32.5826918 72.1035767 0.0901214
32.6000180 72.5056381 0.0903794
32.6173442 73.0203705 0.0906329
32.6346703 74.1175919 0.0913274
32.6519965 75.4537201 0.0920402
32.6693227 77.2634354 0.0930372
32.6866489 79.5281906 0.0943635
32.7039751 81.5744553 0.0955215
32.7213013 82.7823181 0.0962019
32.7386275 83.1146698 0.0963879
32.7559536 82.8798981 0.0961978
32.7732798 83.0894241 0.0962893
32.7906060 84.6975479 0.0972590
32.8079322 87.7256775 0.0990562
32.8252584 91.2686081 0.1010995
32.8425846 93.8826370 0.1026582
32.8599108 93.8144836 0.1026795
32.8772370 90.8381577 0.1010384
32.8945631 86.2470093 0.0984476
32.9118893 81.6042023 0.0957150
32.9292155 77.8582382 0.0934365
32.9465417 75.3419266 0.0918817
32.9638679 73.8217468 0.0908666
32.9811941 73.0989227 0.0903455
32.9985203 72.8376083 0.0901454
33.0158465 72.8401489 0.0901024
33.0331726 72.9999008 0.0901457
33.0504988 73.0425568 0.0901471
33.0678250 72.8951492 0.0900450
33.0851512 72.6510925 0.0899034
33.1024774 72.4355469 0.0898105
33.1198036 72.0958557 0.0896294
33.1371298 71.3536072 0.0891577
33.1544559 70.7602310 0.0888266
33.1717821 70.6059570 0.0887653
33.1891083 70.5945587 0.0887922
33.2064345 70.4603271 0.0887195
33.2237607 70.4877625 0.0887628
33.2410869 70.8521652 0.0890502
33.2584131 71.3672409 0.0893653
33.2757393 72.1968155 0.0898249
33.2930654 73.6229630 0.0906964
33.3103916 74.9585876 0.0914650
33.3277178 75.3619385 0.0916164
33.3450440 74.8996735 0.0912731
33.3623702 74.0748444 0.0907294
33.3796964 72.8914719 0.0899498
33.3970226 71.7808914 0.0892373
33.4143487 71.0242004 0.0887369
33.4316749 70.4523697 0.0883272
33.4490011 70.1918869 0.0881662
33.4663273 70.0144501 0.0880376
33.4836535 70.2686768 0.0882430
33.5009797 70.9811554 0.0887046
33.5183059 71.7706375 0.0892352
33.5356321 72.0710754 0.0894008
33.5529582 72.3464127 0.0896342
33.5702844 72.1023941 0.0894934
33.5876106 71.3795166 0.0890856
33.6049368 70.5236664 0.0885681
33.6222630 69.8849716 0.0881873
33.6395892 69.3793488 0.0879054
33.6569154 69.0390854 0.0876654
33.6742416 68.9883728 0.0876424
33.6915677 68.8981400 0.0875638
33.7088939 68.9224014 0.0875361
33.7262201 68.9973297 0.0875591
33.7435463 68.9339828 0.0874729
33.7608725 68.9836655 0.0874533
33.7781987 69.2227554 0.0875936
33.7955249 69.4954529 0.0877262
33.8128510 69.9793015 0.0880038
33.8301772 70.6027603 0.0883478
33.8475034 71.3332901 0.0887732
33.8648296 71.9260788 0.0891183
33.8821558 71.9840317 0.0891441
33.8994820 71.2110062 0.0885978
33.9168082 70.3473053 0.0880388
33.9341344 69.7324829 0.0876486
33.9514605 69.2926102 0.0873399
33.9687867 69.1258469 0.0872775
33.9861129 69.0370789 0.0872363
34.0034391 69.0401535 0.0872567
34.0207653 68.9682312 0.0872044
34.0380915 68.9232407 0.0871702
34.0554177 69.0306702 0.0872732
34.0727438 69.0494919 0.0873111
34.0900700 68.9095840 0.0872203
34.1073962 68.9202652 0.0872284
34.1247224 69.0888290 0.0873573
34.1420486 69.2355118 0.0874620
34.1593748 69.3435059 0.0875460
34.1767010 69.3394470 0.0875483
34.1940272 69.2899170 0.0875240
34.2113533 69.3751373 0.0875832
34.2286795 69.4680099 0.0876525
34.2460057 69.5934906 0.0877144
34.2633319 70.2190781 0.0881289
34.2806581 71.0890121 0.0886102
34.2979843 72.1663055 0.0892560
34.3153105 73.3738937 0.0899598
34.3326367 75.0704880 0.0909776
34.3499628 76.9656448 0.0921146
34.3672890 78.3945999 0.0929507
34.3846152 78.8110123 0.0931899
34.4019414 77.9187546 0.0926403
34.4192676 75.9740524 0.0914495
34.4365938 73.7424622 0.0900391
34.4539200 72.2074203 0.0890851
34.4712461 71.4520340 0.0885954
34.4885723 71.2641830 0.0885062
34.5058985 71.2619324 0.0887424
34.5232247 71.1888657 0.0889352
34.5405509 70.9858704 0.0890570
34.5578771 71.0529404 0.0897432
34.5752033 71.4303055 0.0907681
34.5925295 72.5606842 0.0921837
34.6098556 74.1944962 0.0938393
34.6271818 75.5196457 0.0952196
34.6445080 75.8546524 0.0958866
34.6618342 75.0833511 0.0957877
34.6791604 73.8049393 0.0953427
34.6964866 72.4341202 0.0948281
34.7138128 71.0886002 0.0943161
34.7311390 69.9320679 0.0938779
34.7484651 69.1185989 0.0936602
34.7657913 68.5700836 0.0935910
34.7831175 68.2555618 0.0936994
34.8004437 68.0256500 0.0938356
34.8177699 67.9096680 0.0940457
34.8350961 67.8832626 0.0943146
34.8524223 67.9585190 0.0946025
34.8697484 68.2208328 0.0950919
34.8870746 68.3876648 0.0954934
34.9044008 68.5980072 0.0958946
34.9217270 68.9006271 0.0963936
34.9390532 69.0353012 0.0967327
34.9563794 68.9937973 0.0969660
34.9737056 68.7172775 0.0970225
34.9910318 68.2727737 0.0969432
35.0083579 67.9823303 0.0969857
35.0256841 67.8261795 0.0971499
35.0430103 67.4758835 0.0971395
35.0603365 67.2522125 0.0971851
35.0776627 67.2587967 0.0974011
35.0949889 67.1791306 0.0975399
35.1123151 67.1079483 0.0977603
35.1296412 67.0024338 0.0979545
35.1469674 66.8801117 0.0980763
35.1642936 66.9298172 0.0983157
35.1816198 67.2905502 0.0988618
35.1989460 67.4454727 0.0992045
35.2162722 67.4572906 0.0994241
35.2335984 67.3799057 0.0995639
35.2509246 67.2218781 0.0996948
35.2682507 67.0790634 0.0998292
35.2855769 66.8818130 0.0998658
35.3029031 66.7614441 0.0999782
35.3202293 66.8354492 0.1002577
35.3375555 67.0891418 0.1007439
35.3548817 67.1384048 0.1009626
35.3722079 67.0791016 0.1010904
35.3895341 66.8708344 0.1011403
35.4068602 66.7941589 0.1013283
35.4241864 66.9213791 0.1016279
35.4415126 67.1107788 0.1020045
35.4588388 67.1530457 0.1022156
35.4761650 67.2137451 0.1024991
35.4934912 67.1291656 0.1026333
35.5108174 67.2482147 0.1029086
35.5281435 67.7575836 0.1035296
35.5454697 68.4967270 0.1043391
35.5627959 69.0546188 0.1049694
35.5801221 69.3479843 0.1053771
35.5974483 69.4230728 0.1056307
35.6147745 69.4200745 0.1058900
35.6321007 69.1189117 0.1058520
35.6494269 68.6055450 0.1056272
35.6667530 68.1336365 0.1054852
35.6840792 67.6806946 0.1053603
35.7014054 67.4395142 0.1053809
35.7187316 67.3149414 0.1054765
35.7360578 67.1789780 0.1055773
35.7533840 67.2159882 0.1058175
35.7707102 67.3784332 0.1061606
35.7880364 67.4110641 0.1063757
35.8053625 67.5338058 0.1067052
35.8226887 67.6919403 0.1070041
35.8400149 68.1083908 0.1075313
35.8573411 69.0823669 0.1085143
35.8746673 70.6817703 0.1099978
35.8919935 72.7368393 0.1117652
35.9093197 75.4835434 0.1140237
35.9266458 79.1739807 0.1170786
35.9439720 82.8643112 0.1200524
35.9612982 85.2961731 0.1220551
35.9786244 85.5949097 0.1225184
35.9959506 83.4193726 0.1211550
36.0132768 79.6075363 0.1185171
36.0306030 75.6091843 0.1156955
36.0479292 72.3351440 0.1133519
36.0652553 70.0577850 0.1117582
36.0825815 68.6081085 0.1108028
36.0999077 67.6475525 0.1102386
36.1172339 67.0412598 0.1099449
36.1345601 66.6380844 0.1098190
36.1518863 66.3956528 0.1098521
36.1692125 66.2983780 0.1099767
36.1865386 66.1198273 0.1100367
36.2038648 66.0444336 0.1102071
36.2211910 66.0597992 0.1104182
36.2385172 66.0637894 0.1106184
36.2558434 66.1170273 0.1108859
36.2731696 66.1188660 0.1110598
36.2904958 66.0848312 0.1112189
36.3078220 66.0165863 0.1113662
36.3251481 66.1147690 0.1116705
36.3424743 66.4719696 0.1121695
36.3598005 66.8254852 0.1126695
36.3771267 67.0673065 0.1131133
36.3944529 67.2857285 0.1135083
36.4117791 67.1998215 0.1136332
36.4291053 67.0122070 0.1137015
36.4464315 66.7819214 0.1137135
36.4637576 66.4237213 0.1135905
36.4810838 66.2031708 0.1136044
36.4984100 66.0310822 0.1136887
36.5157362 65.7750778 0.1136562
36.5330624 65.5571594 0.1136435
36.5503886 65.4988327 0.1138257
36.5677148 65.5235825 0.1140621
36.5850409 65.4619141 0.1142191
36.6023671 65.3256149 0.1142929
36.6196933 65.3474884 0.1144979
36.6370195 65.5595779 0.1149591
36.6543457 65.4479752 0.1150342
36.6716719 65.2817612 0.1150777
36.6889981 65.2433167 0.1152689
36.7063243 65.2385101 0.1154967
36.7236504 65.1696320 0.1156299
36.7409766 65.0638275 0.1157424
36.7583028 65.0203171 0.1158976
36.7756290 65.2733307 0.1163763
36.7929552 65.5058289 0.1167762
36.8102814 65.5162964 0.1170150
36.8276076 65.3321915 0.1170283
36.8449338 65.2550201 0.1171857
36.8622599 65.2539062 0.1174102
36.8795861 65.2703934 0.1176119
36.8969123 65.6437454 0.1181995
36.9142385 65.8519363 0.1185970
36.9315647 65.8225861 0.1187548
36.9488909 65.7674026 0.1189258
36.9662171 65.6121063 0.1190078
36.9835432 65.5209808 0.1191429
37.0008694 65.4499588 0.1192626
37.0181956 65.4779053 0.1195289
37.0355218 65.5965958 0.1198416
37.0528480 65.8127518 0.1202713
37.0701742 66.0549774 0.1206924
37.0875004 66.6174850 0.1214144
37.1048266 67.1524048 0.1221743
37.1221527 67.4219513 0.1226320
37.1394789 67.7714767 0.1231681
37.1568051 67.9587631 0.1235332
37.1741313 67.8024902 0.1236582
37.1914575 67.3906097 0.1234666
37.2087837 67.0146942 0.1234137
37.2261099 66.6934509 0.1232671
37.2434360 66.8745651 0.1236903
37.2607622 66.9940872 0.1240144
37.2780884 67.0271683 0.1243083
37.2954146 67.0432510 0.1245332
37.3127408 67.1124420 0.1248792
37.3300670 66.9235992 0.1248799
37.3473932 66.5953369 0.1247883
37.3647194 66.3782883 0.1248464
37.3820455 66.2169418 0.1249025
37.3993717 66.1813126 0.1251046
37.4166979 66.3278656 0.1255107
37.4340241 66.3695145 0.1257411
37.4513503 66.2496033 0.1258987
37.4686765 65.9474716 0.1258088
37.4860027 65.6365585 0.1257334
37.5033289 65.7354736 0.1260955
37.5206550 65.6523972 0.1262154
37.5379812 65.6194687 0.1264267
37.5553074 65.7479019 0.1267903
37.5726336 65.9404373 0.1272148
37.5899598 65.9704437 0.1275050
37.6072860 65.7042847 0.1274202
37.6246122 65.6882782 0.1276785
37.6419383 65.6540298 0.1279150
37.6592645 65.4843674 0.1279458
37.6765907 65.4613266 0.1281751
37.6939169 65.4640656 0.1283863
37.7112431 65.4760895 0.1286715
37.7285693 65.3067627 0.1287327
37.7458955 65.2766724 0.1289477
37.7632217 65.3023911 0.1292626
37.7805478 65.1454163 0.1293207
37.7978740 65.2273560 0.1296503
37.8152002 65.4423828 0.1300863
37.8325264 65.6484985 0.1305577
37.8498526 65.6711960 0.1308283
37.8671788 65.4871902 0.1308622
37.8845050 65.4698868 0.1311345
37.9018312 65.4333954 0.1313114
37.9191573 65.6099548 0.1317721
37.9364835 65.5499649 0.1319329
37.9538097 65.3052139 0.1318983
37.9711359 65.2765884 0.1321047
37.9884621 65.3918304 0.1324901
38.0057883 65.5785751 0.1329237
38.0231145 65.7021179 0.1333391
38.0404406 65.5792465 0.1334382
38.0577668 65.5452881 0.1336750
38.0750930 65.4987259 0.1338518
38.0924192 65.6310196 0.1343121
38.1097454 65.4801102 0.1343974
38.1270716 65.3491898 0.1344917
38.1443978 65.6867447 0.1351669
38.1617240 65.8570786 0.1356295
38.1790501 65.8783569 0.1358869
38.1963763 66.0194626 0.1362717
38.2137025 66.1915665 0.1366983
38.2310287 66.3523254 0.1371441
38.2483549 66.2935181 0.1373387
38.2656811 66.2870026 0.1376010
38.2830073 66.4374161 0.1380170
38.3003334 66.4314117 0.1383137
38.3176596 66.3587265 0.1384627
38.3349858 66.4430084 0.1388800
38.3523120 66.2477112 0.1388724
38.3696382 66.2963715 0.1392247
38.3869644 66.5419846 0.1397684
38.4042906 66.5973129 0.1400914
38.4216168 66.4928741 0.1402445
38.4389429 66.7510376 0.1408341
38.4562691 67.0116653 0.1413756
38.4735953 67.1819992 0.1418526
38.4909215 67.1572876 0.1421106
38.5082477 67.0077362 0.1422294
38.5255739 66.8223190 0.1422780
38.5429001 66.6092758 0.1423683
38.5602263 66.1879807 0.1421775
38.5775524 65.6970749 0.1418764
38.5948786 65.6501007 0.1421444
38.6122048 65.7656631 0.1425519
38.6295310 65.6738815 0.1427354
38.6468572 65.4165039 0.1427512
38.6641834 65.3471527 0.1430573
38.6815096 65.2044296 0.1431610
38.6988357 65.2465820 0.1435230
38.7161619 65.3987427 0.1439695
38.7334881 65.5191498 0.1444513
38.7508143 65.2894974 0.1443891
38.7681405 65.3594437 0.1447470
38.7854667 65.6907043 0.1453834
38.8027929 66.0702286 0.1461456
38.8201191 66.0034332 0.1463744
38.8374452 65.5055237 0.1460766
38.8547714 65.3444748 0.1462723
38.8720976 65.4009323 0.1465900
38.8894238 65.4949188 0.1470293
38.9067500 65.3457413 0.1471007
38.9240762 65.2532730 0.1472982
38.9414024 65.2895279 0.1476584
38.9587286 65.2058868 0.1478534
38.9760547 65.2736588 0.1483712
38.9933809 65.2756729 0.1486036
39.0107071 65.4147873 0.1491627
39.0280333 65.2494202 0.1491849
39.0453595 65.1875992 0.1494543
39.0626857 65.2905807 0.1498793
39.0800119 65.3331299 0.1502833
39.0973380 65.2244492 0.1504776
39.1146642 65.3075485 0.1509076
39.1319904 65.4565964 0.1514580
39.1493166 65.5900345 0.1518585
39.1666428 65.8260880 0.1525279
39.1839690 65.9882431 0.1529765
39.2012952 66.4307175 0.1538635
39.2186214 66.7523727 0.1546218
39.2359475 66.8166428 0.1549385
39.2532737 67.1600266 0.1557175
39.2705999 67.5642014 0.1565234
39.2879261 67.4834290 0.1568146
39.3052523 66.9341736 0.1564620
39.3225785 66.6903229 0.1565425
39.3399047 66.4145966 0.1565323
39.3572308 66.0291138 0.1563942
39.3745570 65.7385788 0.1563931
39.3918832 65.8442535 0.1568751
39.4092094 66.0082321 0.1574593
39.4265356 65.8914871 0.1576252
39.4438618 65.8404007 0.1578950
39.4611880 65.8359070 0.1582597
39.4785142 65.8967438 0.1587355
39.4958403 65.7256927 0.1589002
39.5131665 65.7176819 0.1592778
39.5304927 66.0625229 0.1600408
39.5478189 66.1053314 0.1604394
39.5651451 66.0776978 0.1607699
39.5824713 66.0032272 0.1610745
39.5997975 66.0517349 0.1615472
39.6171237 66.2635345 0.1621342
39.6344498 66.3581009 0.1625899
39.6517760 66.5453873 0.1631696
39.6691022 66.9094925 0.1640569
39.6864284 67.1187744 0.1647049
39.7037546 67.6718445 0.1657498
39.7210808 68.5996628 0.1672804
39.7384070 69.4761887 0.1685937
39.7557331 71.9854431 0.1719462
39.7730593 77.7845535 0.1791291
39.7903855 90.8564529 0.1935892
39.8077117 122.1982422 0.2246161
39.8250379 178.0075989 0.2744599
39.8423641 206.4950562 0.2972465
39.8596903 167.8325806 0.2667197
39.8770165 115.4477386 0.2205386
39.8943426 89.5047913 0.1949491
39.9116688 79.2406235 0.1842792
39.9289950 74.9499283 0.1797962
39.9463212 72.8372421 0.1777592
39.9636474 72.3663635 0.1775518
39.9809736 74.4268341 0.1807345
39.9982998 73.9919052 0.1805519
40.0156260 72.2318802 0.1785234
40.0329521 75.3608856 0.1825635
40.0502783 86.7179794 0.1964219
40.0676045 110.0567245 0.2218429
40.0849307 138.7190094 0.2511705
40.1022569 144.8890228 0.2583030
40.1195831 113.9880524 0.2275700
40.1369093 84.0567398 0.1953988
40.1542354 73.1265030 0.1831041
40.1715616 69.8594284 0.1797918
40.1888878 68.6880951 0.1787738
40.2062140 68.2098160 0.1785670
40.2235402 67.8471069 0.1786205
40.2408664 67.6814117 0.1787577
40.2581926 67.5276184 0.1790688
40.2755188 67.3520050 0.1794670
40.2928449 66.8825455 0.1790044
40.3101711 66.5960236 0.1792440
40.3274973 66.4056320 0.1794401
40.3448235 66.5439758 0.1799610
40.3621497 67.0457077 0.1814541
40.3794759 66.8800812 0.1813674
40.3968021 67.0842590 0.1822530
40.4141282 67.1452408 0.1830574
40.4314544 66.7111359 0.1826570
40.4487806 66.3057175 0.1826764
40.4661068 66.0216217 0.1828572
40.4834330 66.0166702 0.1831471
40.5007592 66.0980225 0.1839193
40.5180854 66.0185242 0.1842428
40.5354116 65.8688049 0.1844159
40.5527377 66.0012817 0.1854140
40.5700639 65.7008057 0.1852445
40.5873901 65.3188477 0.1852880
40.6047163 65.3372421 0.1859690
40.6220425 65.6037216 0.1866388
40.6393687 65.6835480 0.1874002
40.6566949 65.5370789 0.1877905
40.6740211 65.3391190 0.1878243
40.6913472 65.1715393 0.1882465
40.7086734 65.5164032 0.1893610
40.7259996 65.8512650 0.1902476
40.7433258 65.6878815 0.1907569
40.7606520 65.3208313 0.1905860
40.7779782 65.6360626 0.1915959
40.7953044 65.8022461 0.1925924
40.8126305 65.6871262 0.1928113
40.8299567 65.6882019 0.1933009
40.8472829 65.5303268 0.1938086
40.8646091 65.4763489 0.1940927
40.8819353 65.6878586 0.1951653
40.8992615 65.1802521 0.1949361
40.9165877 65.1005478 0.1952906
40.9339139 65.4703751 0.1965420
40.9512400 65.5589294 0.1973478
40.9685662 65.4044266 0.1975167
40.9858924 65.3099594 0.1981319
41.0032186 65.0558624 0.1982704
41.0205448 65.2645416 0.1991752
41.0378710 65.4883957 0.2002808
41.0551972 65.1109238 0.2001314
41.0725234 65.1684265 0.2009797
41.0898495 65.3359909 0.2018331
41.1071757 65.4560623 0.2026426
41.1245019 65.4802399 0.2033665
41.1418281 65.5487823 0.2040917
41.1591543 65.7029724 0.2049862
41.1764805 65.8984756 0.2060514
41.1938067 65.9899826 0.2067238
41.2111328 66.3117142 0.2078684
41.2284590 66.7497101 0.2094388
41.2457852 66.9558105 0.2103585
41.2631114 67.1608582 0.2112525
41.2804376 67.4471436 0.2127847
41.2977638 66.8366852 0.2121582
41.3150900 66.5371399 0.2123467
41.3324162 66.3979340 0.2131627
41.3497423 66.0677872 0.2131308
41.3670685 65.9282837 0.2134148
41.3843947 66.1044235 0.2148008
41.4017209 66.5259399 0.2161523
41.4190471 67.1055450 0.2175083
41.4363733 67.4191666 0.2191824
41.4536995 67.4134750 0.2197763
41.4710256 68.2445374 0.2216822
41.4883518 68.5336685 0.2232650
41.5056780 68.2028122 0.2235649
41.5230042 68.0946884 0.2238239
41.5403304 67.5558319 0.2237877
41.5576566 67.1457672 0.2245020
41.5749828 66.3999557 0.2233594
41.5923090 66.0678864 0.2236177
41.6096351 65.9334564 0.2247794
41.6269613 65.7421875 0.2247502
41.6442875 65.7044144 0.2252502
41.6616137 65.6571045 0.2266771
41.6789399 65.7206650 0.2274848
41.6962661 66.2077179 0.2286489
41.7135923 66.4027252 0.2303699
41.7309185 66.3905716 0.2315686
41.7482446 66.5664825 0.2319990
41.7655708 66.5610046 0.2329270
41.7828970 66.5936279 0.2346747
41.8002232 66.4352722 0.2347365
41.8175494 66.2942352 0.2351497
41.8348756 66.2285461 0.2367651
41.8522018 65.9945450 0.2371735
41.8695279 65.5257416 0.2364439
41.8868541 65.6372223 0.2383529
41.9041803 65.5208969 0.2394849
41.9215065 65.5896606 0.2397396
41.9388327 65.9274902 0.2413456
41.9561589 66.3198776 0.2438791
41.9734851 66.6467743 0.2452398
41.9908113 66.3693085 0.2450494
42.0081374 66.0620346 0.2461301
42.0254636 66.1665649 0.2477341
42.0427898 65.9122696 0.2474983
42.0601160 65.2218704 0.2473181
42.0774422 65.2620773 0.2492478
42.0947684 65.6530533 0.2507794
42.1120946 65.8147812 0.2516576
42.1294207 65.8168716 0.2533588
42.1467469 65.4511108 0.2539149
42.1640731 65.3801041 0.2543627
42.1813993 65.5436020 0.2558560
42.1987255 65.6925507 0.2578941
42.2160517 65.7848816 0.2592662
42.2333779 65.4420319 0.2590187
42.2507041 65.6706467 0.2612663
42.2680302 65.4317245 0.2621372
42.2853564 65.9178696 0.2643613
42.3026826 66.3710327 0.2662568
42.3200088 66.5207138 0.2680452
42.3373350 66.7251816 0.2698329
42.3546612 66.6987686 0.2709070
42.3719874 66.4726028 0.2717704
42.3893136 66.5233841 0.2734229
42.4066397 66.4018936 0.2745754
42.4239659 66.3624115 0.2758845
42.4412921 66.5562286 0.2777396
42.4586183 66.4340286 0.2786060
42.4759445 66.5962448 0.2806411
42.4932707 66.5625687 0.2823530
42.5105969 66.0501862 0.2824038
42.5279230 66.3918076 0.2846098
42.5452492 67.0730057 0.2880850
42.5625754 67.1714172 0.2900137
42.5799016 67.4401779 0.2916786
42.5972278 67.7085114 0.2933711
42.6145540 67.8195267 0.2962193
42.6318802 67.7316666 0.2980997
42.6492064 68.1340561 0.3000718
42.6665325 68.3236771 0.3016269
42.6838587 68.2945938 0.3044140
42.7011849 68.0350876 0.3063084
42.7185111 67.2894669 0.3047001
42.7358373 67.4128036 0.3064140
42.7531635 67.9792099 0.3112158
42.7704897 68.5351868 0.3153857
42.7878159 69.2554398 0.3174207
42.8051420 70.2406540 0.3204898
42.8224682 71.0850983 0.3261906
42.8397944 70.9032745 0.3293123
42.8571206 70.7164536 0.3293826
42.8744468 70.9489822 0.3305293
42.8917730 70.6968994 0.3335932
42.9090992 70.3034134 0.3372285
42.9264253 69.8658524 0.3369715
42.9437515 69.6790085 0.3366183
42.9610777 68.8988419 0.3378687
42.9784039 68.1658173 0.3413242
42.9957301 67.4834747 0.3417165
43.0130563 67.1174545 0.3405002
43.0303825 66.9132233 0.3423629
43.0477087 66.6821899 0.3470921
43.0650348 66.5550003 0.3506965
43.0823610 66.1646271 0.3495866
43.0996872 65.7796555 0.3494080
43.1170134 66.0245438 0.3552162
43.1343396 65.7059860 0.3600703
43.1516658 65.4212112 0.3605343
43.1689920 66.2250290 0.3627250
43.1863181 66.9433136 0.3683735
43.2036443 67.3773956 0.3760884
43.2209705 67.0319901 0.3792748
43.2382967 66.1895523 0.3768637
43.2556229 66.2478638 0.3790927
43.2729491 66.2701111 0.3850192
43.2902753 66.1179581 0.3907640
43.3076015 66.7591248 0.3956673
43.3249276 67.2200317 0.3979698
43.3422538 66.5611496 0.3985485
43.3595800 66.4456329 0.4055423
43.3769062 66.5468445 0.4121259
43.3942324 67.1129227 0.4170554
43.4115586 66.4158325 0.4163433
43.4288848 65.8068237 0.4192258
43.4462110 66.1646042 0.4278646
43.4635371 66.3476028 0.4335481
43.4808633 66.1009293 0.4366151
43.4981895 66.5889053 0.4424792
43.5155157 66.9969177 0.4494915
43.5328419 67.0427628 0.4580891
43.5501681 66.6776581 0.4620186
43.5674943 67.1536179 0.4693334
43.5848204 66.7229156 0.4729245
43.6021466 66.3797760 0.4783140
43.6194728 66.9227829 0.4884812
43.6367990 67.3967133 0.4970037
43.6541252 67.6302032 0.5065529
43.6714514 68.2529984 0.5176255
43.6887776 68.0147018 0.5234293
43.7061038 68.1129608 0.5311118
43.7234299 67.8018799 0.5363508
43.7407561 67.5139771 0.5484658
43.7580823 67.4313278 0.5647219
43.7754085 66.4786148 0.5709287
43.7927347 66.8025589 0.5794992
43.8100609 67.3778992 0.5856196
43.8273871 67.6348877 0.5977705
43.8447133 67.5825272 0.6230219
43.8620394 67.3596191 0.6468555
43.8793656 67.7775650 0.6631426
43.8966918 67.3296738 0.6635118
43.9140180 66.8170929 0.6658230
43.9313442 67.1605682 0.6918135
43.9486704 66.6984406 0.7282748
43.9659966 69.1412888 0.7849737
43.9833227 69.7471542 0.8062869
44.0006489 68.8360367 0.8058516
44.0179751 68.4320526 0.8196744
44.0353013 69.4106979 0.8719314
44.0526275 69.3619766 0.9407657
44.0699537 69.5642166 1.0220776
44.0872799 69.5884399 1.0695441
44.1046061 70.8374634 1.1107379
44.1219322 71.7058105 1.1854377
44.1392584 71.4690018 1.2983150
44.1565846 73.6549377 1.5134789
44.1739108 75.6146851 1.8355759
44.1912370 73.1794128 2.1927850
44.2085632 73.8291702 2.6811752
44.2258894 78.4748840 3.2861788
44.2432155 79.8218842 3.9219594
44.2605417 78.2664719 5.1331983
44.2778679 70.8518295 8.5427027
